0
Diameter:	   5.00
   1.00
Area:	  19.6350
GaugeLength:	  50.00
2009-1-1
A3
001
DataNumber:	3212
index	Load(kN)	Defor(mm)	Stroke(mm)	Time(s)
    0	  0.0100	  0.0088	   0.009	   0.045
    1	  0.0096	  0.0162	   0.016	   0.095
    2	  0.0100	  0.0250	   0.025	   0.145
    3	  0.0096	  0.0337	   0.034	   0.195
    4	  0.0096	  0.0412	   0.041	   0.245
    5	  0.0100	  0.0500	   0.050	   0.295
    6	  0.0100	  0.0587	   0.059	   0.345
    7	  0.0096	  0.0675	   0.067	   0.395
    8	  0.0100	  0.0750	   0.075	   0.445
    9	  0.0100	  0.0837	   0.084	   0.495
   10	  0.0104	  0.0925	   0.093	   0.545
   11	  0.0100	  0.1000	   0.100	   0.595
   12	  0.0096	  0.1088	   0.109	   0.645
   13	  0.0096	  0.1175	   0.117	   0.695
   14	  0.0096	  0.1250	   0.125	   0.745
   15	  0.0100	  0.1337	   0.134	   0.795
   16	  0.0100	  0.1425	   0.142	   0.845
   17	  0.0104	  0.1512	   0.151	   0.895
   18	  0.0104	  0.1587	   0.159	   0.945
   19	  0.0104	  0.1675	   0.167	   0.995
   20	  0.0104	  0.1762	   0.176	   1.045
   21	  0.0104	  0.1837	   0.184	   1.095
   22	  0.0104	  0.1925	   0.192	   1.145
   23	  0.0104	  0.2013	   0.201	   1.195
   24	  0.0104	  0.2087	   0.209	   1.245
   25	  0.0100	  0.2175	   0.218	   1.295
   26	  0.0104	  0.2262	   0.226	   1.345
   27	  0.0108	  0.2338	   0.234	   1.395
   28	  0.0112	  0.2425	   0.242	   1.445
   29	  0.0108	  0.2512	   0.251	   1.495
   30	  0.0108	  0.2587	   0.259	   1.545
   31	  0.0112	  0.2675	   0.267	   1.595
   32	  0.0112	  0.2763	   0.276	   1.645
   33	  0.0116	  0.2850	   0.285	   1.695
   34	  0.0112	  0.2925	   0.292	   1.745
   35	  0.0116	  0.3012	   0.301	   1.795
   36	  0.0116	  0.3088	   0.309	   1.845
   37	  0.0116	  0.3175	   0.317	   1.895
   38	  0.0124	  0.3262	   0.326	   1.945
   39	  0.0120	  0.3350	   0.335	   1.995
   40	  0.0104	  0.3425	   0.343	   2.045
   41	  0.0116	  0.3512	   0.351	   2.095
   42	  0.0116	  0.3600	   0.360	   2.145
   43	  0.0112	  0.3675	   0.367	   2.195
   44	  0.0116	  0.3762	   0.376	   2.245
   45	  0.0116	  0.3850	   0.385	   2.295
   46	  0.0120	  0.3925	   0.392	   2.345
   47	  0.0120	  0.4013	   0.401	   2.395
   48	  0.0116	  0.4100	   0.410	   2.445
   49	  0.0120	  0.4175	   0.417	   2.495
   50	  0.0116	  0.4262	   0.426	   2.545
   51	  0.0120	  0.4350	   0.435	   2.595
   52	  0.0124	  0.4425	   0.442	   2.645
   53	  0.0124	  0.4512	   0.451	   2.695
   54	  0.0120	  0.4600	   0.460	   2.745
   55	  0.0120	  0.4675	   0.468	   2.795
   56	  0.0120	  0.4762	   0.476	   2.845
   57	  0.0116	  0.4850	   0.485	   2.895
   58	  0.0116	  0.4925	   0.492	   2.945
   59	  0.0120	  0.5012	   0.501	   2.995
   60	  0.0120	  0.5100	   0.510	   3.045
   61	  0.0120	  0.5175	   0.517	   3.095
   62	  0.0124	  0.5263	   0.526	   3.145
   63	  0.0124	  0.5350	   0.535	   3.195
   64	  0.0120	  0.5437	   0.544	   3.245
   65	  0.0120	  0.5512	   0.551	   3.295
   66	  0.0120	  0.5600	   0.560	   3.345
   67	  0.0120	  0.5687	   0.569	   3.395
   68	  0.0128	  0.5763	   0.576	   3.445
   69	  0.0128	  0.5850	   0.585	   3.495
   70	  0.0128	  0.5938	   0.594	   3.545
   71	  0.0124	  0.6012	   0.601	   3.595
   72	  0.0128	  0.6100	   0.610	   3.645
   73	  0.0132	  0.6187	   0.619	   3.695
   74	  0.0128	  0.6275	   0.627	   3.745
   75	  0.0128	  0.6350	   0.635	   3.795
   76	  0.0128	  0.6438	   0.644	   3.845
   77	  0.0132	  0.6525	   0.652	   3.895
   78	  0.0128	  0.6612	   0.661	   3.945
   79	  0.0128	  0.6687	   0.669	   3.995
   80	  0.0132	  0.6775	   0.678	   4.045
   81	  0.0128	  0.6850	   0.685	   4.095
   82	  0.0128	  0.6937	   0.694	   4.145
   83	  0.0132	  0.7025	   0.702	   4.195
   84	  0.0136	  0.7113	   0.711	   4.245
   85	  0.0132	  0.7188	   0.719	   4.295
   86	  0.0136	  0.7275	   0.727	   4.345
   87	  0.0136	  0.7350	   0.735	   4.395
   88	  0.0132	  0.7437	   0.744	   4.445
   89	  0.0140	  0.7525	   0.752	   4.495
   90	  0.0136	  0.7612	   0.761	   4.545
   91	  0.0136	  0.7688	   0.769	   4.595
   92	  0.0132	  0.7775	   0.777	   4.645
   93	  0.0140	  0.7862	   0.786	   4.695
   94	  0.0140	  0.7950	   0.795	   4.745
   95	  0.0140	  0.8025	   0.803	   4.795
   96	  0.0140	  0.8112	   0.811	   4.845
   97	  0.0144	  0.8200	   0.820	   4.895
   98	  0.0148	  0.8275	   0.827	   4.945
   99	  0.0144	  0.8363	   0.836	   4.995
  100	  0.0140	  0.8450	   0.845	   5.045
  101	  0.0140	  0.8525	   0.852	   5.095
  102	  0.0132	  0.8612	   0.861	   5.145
  103	  0.0136	  0.8700	   0.870	   5.195
  104	  0.0144	  0.8775	   0.877	   5.245
  105	  0.0140	  0.8862	   0.886	   5.295
  106	  0.0140	  0.8950	   0.895	   5.345
  107	  0.0140	  0.9038	   0.904	   5.395
  108	  0.0152	  0.9112	   0.911	   5.445
  109	  0.0148	  0.9200	   0.920	   5.495
  110	  0.0144	  0.9287	   0.929	   5.545
  111	  0.0144	  0.9375	   0.938	   5.595
  112	  0.0152	  0.9450	   0.945	   5.645
  113	  0.0148	  0.9537	   0.954	   5.695
  114	  0.0148	  0.9625	   0.962	   5.745
  115	  0.0156	  0.9700	   0.970	   5.795
  116	  0.0152	  0.9787	   0.979	   5.845
  117	  0.0156	  0.9875	   0.987	   5.895
  118	  0.0156	  0.9950	   0.995	   5.945
  119	  0.0156	  1.0037	   1.004	   5.995
  120	  0.0152	  1.0125	   1.012	   6.045
  121	  0.0160	  1.0213	   1.021	   6.095
  122	  0.0160	  1.0287	   1.029	   6.145
  123	  0.0164	  1.0375	   1.038	   6.195
  124	  0.0164	  1.0462	   1.046	   6.245
  125	  0.0164	  1.0537	   1.054	   6.295
  126	  0.0156	  1.0625	   1.062	   6.345
  127	  0.0156	  1.0712	   1.071	   6.395
  128	  0.0160	  1.0800	   1.080	   6.445
  129	  0.0164	  1.0875	   1.087	   6.495
  130	  0.0164	  1.0962	   1.096	   6.545
  131	  0.0156	  1.1050	   1.105	   6.595
  132	  0.0160	  1.1125	   1.112	   6.645
  133	  0.0164	  1.1213	   1.121	   6.695
  134	  0.0168	  1.1300	   1.130	   6.745
  135	  0.0168	  1.1375	   1.137	   6.795
  136	  0.0172	  1.1463	   1.146	   6.845
  137	  0.0168	  1.1550	   1.155	   6.895
  138	  0.0172	  1.1637	   1.164	   6.945
  139	  0.0168	  1.1712	   1.171	   6.995
  140	  0.0168	  1.1800	   1.180	   7.045
  141	  0.0168	  1.1888	   1.189	   7.095
  142	  0.0176	  1.1962	   1.196	   7.145
  143	  0.0176	  1.2050	   1.205	   7.195
  144	  0.0176	  1.2138	   1.214	   7.245
  145	  0.0180	  1.2212	   1.221	   7.295
  146	  0.0184	  1.2300	   1.230	   7.345
  147	  0.0184	  1.2387	   1.239	   7.395
  148	  0.0184	  1.2475	   1.247	   7.445
  149	  0.0180	  1.2550	   1.255	   7.495
  150	  0.0184	  1.2637	   1.264	   7.545
  151	  0.0184	  1.2713	   1.271	   7.595
  152	  0.0188	  1.2800	   1.280	   7.645
  153	  0.0184	  1.2887	   1.289	   7.695
  154	  0.0188	  1.2975	   1.298	   7.745
  155	  0.0184	  1.3050	   1.305	   7.795
  156	  0.0188	  1.3138	   1.314	   7.845
  157	  0.0196	  1.3225	   1.322	   7.895
  158	  0.0196	  1.3312	   1.331	   7.945
  159	  0.0196	  1.3388	   1.339	   7.995
  160	  0.0196	  1.3475	   1.347	   8.045
  161	  0.0204	  1.3562	   1.356	   8.095
  162	  0.0192	  1.3637	   1.364	   8.145
  163	  0.0188	  1.3725	   1.372	   8.195
  164	  0.0196	  1.3813	   1.381	   8.245
  165	  0.0196	  1.3887	   1.389	   8.295
  166	  0.0192	  1.3975	   1.397	   8.345
  167	  0.0196	  1.4062	   1.406	   8.395
  168	  0.0192	  1.4137	   1.414	   8.445
  169	  0.0192	  1.4225	   1.423	   8.495
  170	  0.0196	  1.4312	   1.431	   8.545
  171	  0.0192	  1.4387	   1.439	   8.595
  172	  0.0196	  1.4475	   1.447	   8.645
  173	  0.0200	  1.4562	   1.456	   8.695
  174	  0.0204	  1.4650	   1.465	   8.745
  175	  0.0204	  1.4725	   1.472	   8.795
  176	  0.0204	  1.4812	   1.481	   8.845
  177	  0.0204	  1.4900	   1.490	   8.895
  178	  0.0208	  1.4975	   1.497	   8.945
  179	  0.0208	  1.5063	   1.506	   8.995
  180	  0.0212	  1.5150	   1.515	   9.045
  181	  0.0212	  1.5225	   1.522	   9.095
  182	  0.0208	  1.5312	   1.531	   9.145
  183	  0.0204	  1.5400	   1.540	   9.195
  184	  0.0212	  1.5475	   1.548	   9.245
  185	  0.0212	  1.5562	   1.556	   9.295
  186	  0.0220	  1.5650	   1.565	   9.345
  187	  0.0220	  1.5725	   1.572	   9.395
  188	  0.0224	  1.5812	   1.581	   9.445
  189	  0.0220	  1.5900	   1.590	   9.495
  190	  0.0220	  1.5975	   1.597	   9.545
  191	  0.0220	  1.6062	   1.606	   9.595
  192	  0.0216	  1.6150	   1.615	   9.645
  193	  0.0224	  1.6237	   1.624	   9.695
  194	  0.0224	  1.6312	   1.631	   9.745
  195	  0.0228	  1.6400	   1.640	   9.795
  196	  0.0228	  1.6487	   1.649	   9.845
  197	  0.0228	  1.6562	   1.656	   9.895
  198	  0.0228	  1.6650	   1.665	   9.945
  199	  0.0232	  1.6737	   1.674	   9.995
  200	  0.0228	  1.6812	   1.681	  10.045
  201	  0.0232	  1.6900	   1.690	  10.095
  202	  0.0224	  1.6988	   1.699	  10.145
  203	  0.0228	  1.7075	   1.707	  10.195
  204	  0.0232	  1.7150	   1.715	  10.245
  205	  0.0228	  1.7237	   1.724	  10.295
  206	  0.0228	  1.7312	   1.731	  10.345
  207	  0.0232	  1.7400	   1.740	  10.395
  208	  0.0228	  1.7487	   1.749	  10.445
  209	  0.0236	  1.7575	   1.757	  10.495
  210	  0.0228	  1.7650	   1.765	  10.545
  211	  0.0240	  1.7737	   1.774	  10.595
  212	  0.0240	  1.7825	   1.782	  10.645
  213	  0.0240	  1.7912	   1.791	  10.695
  214	  0.0244	  1.7987	   1.799	  10.745
  215	  0.0248	  1.8075	   1.808	  10.795
  216	  0.0248	  1.8150	   1.815	  10.845
  217	  0.0244	  1.8237	   1.824	  10.895
  218	  0.0248	  1.8325	   1.832	  10.945
  219	  0.0248	  1.8400	   1.840	  10.995
  220	  0.0248	  1.8487	   1.849	  11.045
  221	  0.0240	  1.8575	   1.857	  11.095
  222	  0.0248	  1.8650	   1.865	  11.145
  223	  0.0252	  1.8737	   1.874	  11.195
  224	  0.0248	  1.8825	   1.882	  11.245
  225	  0.0252	  1.8913	   1.891	  11.295
  226	  0.0260	  1.8987	   1.899	  11.345
  227	  0.0256	  1.9075	   1.907	  11.395
  228	  0.0268	  1.9162	   1.916	  11.445
  229	  0.0256	  1.9237	   1.924	  11.495
  230	  0.0260	  1.9325	   1.933	  11.545
  231	  0.0260	  1.9412	   1.941	  11.595
  232	  0.0260	  1.9487	   1.949	  11.645
  233	  0.0264	  1.9575	   1.957	  11.695
  234	  0.0264	  1.9662	   1.966	  11.745
  235	  0.0264	  1.9750	   1.975	  11.795
  236	  0.0264	  1.9825	   1.982	  11.845
  237	  0.0260	  1.9912	   1.991	  11.895
  238	  0.0260	  2.0000	   2.000	  11.945
  239	  0.0264	  2.0075	   2.007	  11.995
  240	  0.0264	  2.0162	   2.016	  12.045
  241	  0.0268	  2.0250	   2.025	  12.095
  242	  0.0268	  2.0325	   2.033	  12.145
  243	  0.0276	  2.0412	   2.041	  12.195
  244	  0.0276	  2.0500	   2.050	  12.245
  245	  0.0288	  2.0575	   2.057	  12.295
  246	  0.0288	  2.0662	   2.066	  12.345
  247	  0.0288	  2.0750	   2.075	  12.395
  248	  0.0280	  2.0825	   2.082	  12.445
  249	  0.0276	  2.0912	   2.091	  12.495
  250	  0.0280	  2.1000	   2.100	  12.545
  251	  0.0276	  2.1075	   2.107	  12.595
  252	  0.0276	  2.1163	   2.116	  12.645
  253	  0.0280	  2.1250	   2.125	  12.695
  254	  0.0280	  2.1325	   2.132	  12.745
  255	  0.0284	  2.1412	   2.141	  12.795
  256	  0.0292	  2.1500	   2.150	  12.845
  257	  0.0288	  2.1588	   2.159	  12.895
  258	  0.0284	  2.1662	   2.166	  12.945
  259	  0.0292	  2.1750	   2.175	  12.995
  260	  0.0296	  2.1837	   2.184	  13.045
  261	  0.0292	  2.1912	   2.191	  13.095
  262	  0.0292	  2.2000	   2.200	  13.145
  263	  0.0304	  2.2088	   2.209	  13.195
  264	  0.0296	  2.2175	   2.217	  13.245
  265	  0.0300	  2.2250	   2.225	  13.295
  266	  0.0300	  2.2337	   2.234	  13.345
  267	  0.0300	  2.2425	   2.243	  13.395
  268	  0.0300	  2.2500	   2.250	  13.445
  269	  0.0300	  2.2587	   2.259	  13.495
  270	  0.0300	  2.2675	   2.267	  13.545
  271	  0.0304	  2.2750	   2.275	  13.595
  272	  0.0304	  2.2838	   2.284	  13.645
  273	  0.0312	  2.2925	   2.293	  13.695
  274	  0.0308	  2.3000	   2.300	  13.745
  275	  0.0312	  2.3087	   2.309	  13.795
  276	  0.0312	  2.3175	   2.317	  13.845
  277	  0.0312	  2.3250	   2.325	  13.895
  278	  0.0316	  2.3338	   2.334	  13.945
  279	  0.0320	  2.3425	   2.342	  13.995
  280	  0.0320	  2.3500	   2.350	  14.045
  281	  0.0320	  2.3587	   2.359	  14.095
  282	  0.0320	  2.3675	   2.367	  14.145
  283	  0.0324	  2.3750	   2.375	  14.195
  284	  0.0320	  2.3837	   2.384	  14.245
  285	  0.0324	  2.3925	   2.392	  14.295
  286	  0.0328	  2.4000	   2.400	  14.345
  287	  0.0328	  2.4088	   2.409	  14.395
  288	  0.0324	  2.4175	   2.418	  14.445
  289	  0.0324	  2.4250	   2.425	  14.495
  290	  0.0324	  2.4337	   2.434	  14.545
  291	  0.0336	  2.4425	   2.442	  14.595
  292	  0.0336	  2.4500	   2.450	  14.645
  293	  0.0332	  2.4588	   2.459	  14.695
  294	  0.0328	  2.4675	   2.467	  14.745
  295	  0.0340	  2.4762	   2.476	  14.795
  296	  0.0340	  2.4837	   2.484	  14.845
  297	  0.0336	  2.4925	   2.492	  14.895
  298	  0.0336	  2.5013	   2.501	  14.945
  299	  0.0344	  2.5087	   2.509	  14.995
  300	  0.0340	  2.5175	   2.517	  15.045
  301	  0.0344	  2.5250	   2.525	  15.095
  302	  0.0344	  2.5338	   2.534	  15.145
  303	  0.0340	  2.5425	   2.543	  15.195
  304	  0.0344	  2.5500	   2.550	  15.245
  305	  0.0340	  2.5587	   2.559	  15.295
  306	  0.0352	  2.5675	   2.567	  15.345
  307	  0.0348	  2.5750	   2.575	  15.395
  308	  0.0352	  2.5838	   2.584	  15.445
  309	  0.0348	  2.5925	   2.592	  15.495
  310	  0.0352	  2.6000	   2.600	  15.545
  311	  0.0352	  2.6087	   2.609	  15.595
  312	  0.0352	  2.6175	   2.617	  15.645
  313	  0.0348	  2.6250	   2.625	  15.695
  314	  0.0352	  2.6337	   2.634	  15.745
  315	  0.0356	  2.6425	   2.642	  15.795
  316	  0.0356	  2.6500	   2.650	  15.845
  317	  0.0356	  2.6588	   2.659	  15.895
  318	  0.0352	  2.6675	   2.668	  15.945
  319	  0.0356	  2.6750	   2.675	  15.995
  320	  0.0364	  2.6837	   2.684	  16.045
  321	  0.0368	  2.6925	   2.692	  16.095
  322	  0.0372	  2.7000	   2.700	  16.145
  323	  0.0372	  2.7088	   2.709	  16.195
  324	  0.0376	  2.7175	   2.717	  16.245
  325	  0.0380	  2.7250	   2.725	  16.295
  326	  0.0376	  2.7337	   2.734	  16.345
  327	  0.0372	  2.7425	   2.742	  16.395
  328	  0.0372	  2.7513	   2.751	  16.445
  329	  0.0376	  2.7587	   2.759	  16.495
  330	  0.0384	  2.7675	   2.767	  16.545
  331	  0.0388	  2.7762	   2.776	  16.595
  332	  0.0388	  2.7837	   2.784	  16.645
  333	  0.0384	  2.7925	   2.793	  16.695
  334	  0.0384	  2.8012	   2.801	  16.745
  335	  0.0388	  2.8087	   2.809	  16.795
  336	  0.0388	  2.8175	   2.817	  16.845
  337	  0.0392	  2.8250	   2.825	  16.895
  338	  0.0400	  2.8338	   2.834	  16.945
  339	  0.0396	  2.8425	   2.842	  16.995
  340	  0.0400	  2.8500	   2.850	  17.045
  341	  0.0404	  2.8587	   2.859	  17.095
  342	  0.0404	  2.8675	   2.867	  17.145
  343	  0.0408	  2.8750	   2.875	  17.195
  344	  0.0404	  2.8837	   2.884	  17.245
  345	  0.0412	  2.8925	   2.892	  17.295
  346	  0.0412	  2.9012	   2.901	  17.345
  347	  0.0404	  2.9087	   2.909	  17.395
  348	  0.0408	  2.9175	   2.918	  17.445
  349	  0.0408	  2.9262	   2.926	  17.495
  350	  0.0412	  2.9337	   2.934	  17.545
  351	  0.0408	  2.9425	   2.942	  17.595
  352	  0.0412	  2.9512	   2.951	  17.645
  353	  0.0416	  2.9588	   2.959	  17.695
  354	  0.0412	  2.9675	   2.967	  17.745
  355	  0.0412	  2.9750	   2.975	  17.795
  356	  0.0420	  2.9837	   2.984	  17.845
  357	  0.0416	  2.9925	   2.992	  17.895
  358	  0.0420	  3.0013	   3.001	  17.945
  359	  0.0428	  3.0087	   3.009	  17.995
  360	  0.0420	  3.0175	   3.017	  18.045
  361	  0.0424	  3.0250	   3.025	  18.095
  362	  0.0428	  3.0337	   3.034	  18.145
  363	  0.0432	  3.0425	   3.043	  18.195
  364	  0.0436	  3.0512	   3.051	  18.245
  365	  0.0432	  3.0587	   3.059	  18.295
  366	  0.0432	  3.0675	   3.067	  18.345
  367	  0.0436	  3.0750	   3.075	  18.395
  368	  0.0444	  3.0838	   3.084	  18.445
  369	  0.0440	  3.0925	   3.092	  18.495
  370	  0.0444	  3.1012	   3.101	  18.545
  371	  0.0444	  3.1087	   3.109	  18.595
  372	  0.0448	  3.1175	   3.117	  18.645
  373	  0.0444	  3.1250	   3.125	  18.695
  374	  0.0456	  3.1337	   3.134	  18.745
  375	  0.0456	  3.1425	   3.142	  18.795
  376	  0.0456	  3.1512	   3.151	  18.845
  377	  0.0456	  3.1587	   3.159	  18.895
  378	  0.0452	  3.1675	   3.168	  18.945
  379	  0.0456	  3.1762	   3.176	  18.995
  380	  0.0464	  3.1837	   3.184	  19.045
  381	  0.0464	  3.1925	   3.192	  19.095
  382	  0.0468	  3.2012	   3.201	  19.145
  383	  0.0468	  3.2088	   3.209	  19.195
  384	  0.0472	  3.2175	   3.217	  19.245
  385	  0.0468	  3.2262	   3.226	  19.295
  386	  0.0468	  3.2337	   3.234	  19.345
  387	  0.0468	  3.2425	   3.242	  19.395
  388	  0.0472	  3.2513	   3.251	  19.445
  389	  0.0476	  3.2587	   3.259	  19.495
  390	  0.0476	  3.2675	   3.267	  19.545
  391	  0.0476	  3.2762	   3.276	  19.595
  392	  0.0480	  3.2837	   3.284	  19.645
  393	  0.0480	  3.2925	   3.293	  19.695
  394	  0.0480	  3.3012	   3.301	  19.745
  395	  0.0488	  3.3087	   3.309	  19.795
  396	  0.0492	  3.3175	   3.317	  19.845
  397	  0.0488	  3.3262	   3.326	  19.895
  398	  0.0484	  3.3338	   3.334	  19.945
  399	  0.0484	  3.3425	   3.342	  19.995
  400	  0.0488	  3.3512	   3.351	  20.045
  401	  0.0492	  3.3587	   3.359	  20.095
  402	  0.0492	  3.3675	   3.367	  20.145
  403	  0.0496	  3.3750	   3.375	  20.195
  404	  0.0500	  3.3837	   3.384	  20.245
  405	  0.0500	  3.3925	   3.392	  20.295
  406	  0.0504	  3.4000	   3.400	  20.345
  407	  0.0512	  3.4087	   3.409	  20.395
  408	  0.0508	  3.4175	   3.418	  20.445
  409	  0.0504	  3.4262	   3.426	  20.495
  410	  0.0508	  3.4337	   3.434	  20.545
  411	  0.0512	  3.4425	   3.442	  20.595
  412	  0.0516	  3.4512	   3.451	  20.645
  413	  0.0512	  3.4600	   3.460	  20.695
  414	  0.0516	  3.4675	   3.467	  20.745
  415	  0.0524	  3.4762	   3.476	  20.795
  416	  0.0524	  3.4837	   3.484	  20.845
  417	  0.0528	  3.4925	   3.492	  20.895
  418	  0.0524	  3.5013	   3.501	  20.945
  419	  0.0524	  3.5100	   3.510	  20.995
  420	  0.0520	  3.5175	   3.517	  21.045
  421	  0.0524	  3.5262	   3.526	  21.095
  422	  0.0532	  3.5337	   3.534	  21.145
  423	  0.0532	  3.5425	   3.543	  21.195
  424	  0.0536	  3.5512	   3.551	  21.245
  425	  0.0536	  3.5587	   3.559	  21.295
  426	  0.0532	  3.5675	   3.567	  21.345
  427	  0.0536	  3.5762	   3.576	  21.395
  428	  0.0540	  3.5850	   3.585	  21.445
  429	  0.0528	  3.5925	   3.592	  21.495
  430	  0.0536	  3.6012	   3.601	  21.545
  431	  0.0536	  3.6100	   3.610	  21.595
  432	  0.0548	  3.6175	   3.617	  21.645
  433	  0.0548	  3.6263	   3.626	  21.695
  434	  0.0548	  3.6337	   3.634	  21.745
  435	  0.0552	  3.6425	   3.642	  21.795
  436	  0.0552	  3.6512	   3.651	  21.845
  437	  0.0556	  3.6587	   3.659	  21.895
  438	  0.0544	  3.6675	   3.668	  21.945
  439	  0.0552	  3.6762	   3.676	  21.995
  440	  0.0552	  3.6837	   3.684	  22.045
  441	  0.0556	  3.6925	   3.692	  22.095
  442	  0.0556	  3.7012	   3.701	  22.145
  443	  0.0564	  3.7100	   3.710	  22.195
  444	  0.0560	  3.7175	   3.717	  22.245
  445	  0.0564	  3.7262	   3.726	  22.295
  446	  0.0564	  3.7350	   3.735	  22.345
  447	  0.0564	  3.7425	   3.742	  22.395
  448	  0.0564	  3.7513	   3.751	  22.445
  449	  0.0564	  3.7600	   3.760	  22.495
  450	  0.0564	  3.7675	   3.767	  22.545
  451	  0.0568	  3.7762	   3.776	  22.595
  452	  0.0576	  3.7850	   3.785	  22.645
  453	  0.0576	  3.7925	   3.793	  22.695
  454	  0.0580	  3.8012	   3.801	  22.745
  455	  0.0584	  3.8100	   3.810	  22.795
  456	  0.0584	  3.8175	   3.817	  22.845
  457	  0.0584	  3.8262	   3.826	  22.895
  458	  0.0588	  3.8350	   3.835	  22.945
  459	  0.0600	  3.8425	   3.842	  22.995
  460	  0.0596	  3.8512	   3.851	  23.045
  461	  0.0592	  3.8600	   3.860	  23.095
  462	  0.0592	  3.8675	   3.867	  23.145
  463	  0.0596	  3.8763	   3.876	  23.195
  464	  0.0596	  3.8850	   3.885	  23.245
  465	  0.0604	  3.8937	   3.894	  23.295
  466	  0.0604	  3.9012	   3.901	  23.345
  467	  0.0600	  3.9100	   3.910	  23.395
  468	  0.0604	  3.9187	   3.919	  23.445
  469	  0.0604	  3.9262	   3.926	  23.495
  470	  0.0604	  3.9350	   3.935	  23.545
  471	  0.0600	  3.9425	   3.942	  23.595
  472	  0.0612	  3.9512	   3.951	  23.645
  473	  0.0612	  3.9600	   3.960	  23.695
  474	  0.0616	  3.9688	   3.969	  23.745
  475	  0.0616	  3.9762	   3.976	  23.795
  476	  0.0620	  3.9850	   3.985	  23.845
  477	  0.0620	  3.9937	   3.994	  23.895
  478	  0.0624	  4.0025	   4.003	  23.945
  479	  0.0616	  4.0100	   4.010	  23.995
  480	  0.0624	  4.0187	   4.019	  24.045
  481	  0.0624	  4.0275	   4.027	  24.095
  482	  0.0632	  4.0350	   4.035	  24.145
  483	  0.0636	  4.0437	   4.044	  24.195
  484	  0.0632	  4.0525	   4.052	  24.245
  485	  0.0632	  4.0600	   4.060	  24.295
  486	  0.0628	  4.0687	   4.069	  24.345
  487	  0.0636	  4.0775	   4.077	  24.395
  488	  0.0636	  4.0850	   4.085	  24.445
  489	  0.0640	  4.0938	   4.094	  24.495
  490	  0.0640	  4.1025	   4.102	  24.545
  491	  0.0644	  4.1100	   4.110	  24.595
  492	  0.0640	  4.1188	   4.119	  24.645
  493	  0.0636	  4.1275	   4.128	  24.695
  494	  0.0640	  4.1363	   4.136	  24.745
  495	  0.0648	  4.1437	   4.144	  24.795
  496	  0.0648	  4.1525	   4.152	  24.845
  497	  0.0648	  4.1613	   4.161	  24.895
  498	  0.0648	  4.1687	   4.169	  24.945
  499	  0.0660	  4.1775	   4.177	  24.995
  500	  0.0656	  4.1862	   4.186	  25.045
  501	  0.0660	  4.1937	   4.194	  25.095
  502	  0.0664	  4.2025	   4.202	  25.145
  503	  0.0668	  4.2112	   4.211	  25.195
  504	  0.0676	  4.2188	   4.219	  25.245
  505	  0.0672	  4.2275	   4.227	  25.295
  506	  0.0672	  4.2362	   4.236	  25.345
  507	  0.0668	  4.2438	   4.244	  25.395
  508	  0.0672	  4.2525	   4.253	  25.445
  509	  0.0672	  4.2613	   4.261	  25.495
  510	  0.0676	  4.2700	   4.270	  25.545
  511	  0.0676	  4.2775	   4.277	  25.595
  512	  0.0680	  4.2863	   4.286	  25.645
  513	  0.0676	  4.2950	   4.295	  25.695
  514	  0.0680	  4.3025	   4.302	  25.745
  515	  0.0684	  4.3112	   4.311	  25.795
  516	  0.0684	  4.3200	   4.320	  25.845
  517	  0.0684	  4.3275	   4.327	  25.895
  518	  0.0692	  4.3362	   4.336	  25.945
  519	  0.0692	  4.3450	   4.345	  25.995
  520	  0.0696	  4.3525	   4.352	  26.045
  521	  0.0700	  4.3612	   4.361	  26.095
  522	  0.0696	  4.3700	   4.370	  26.145
  523	  0.0696	  4.3775	   4.378	  26.195
  524	  0.0700	  4.3863	   4.386	  26.245
  525	  0.0700	  4.3950	   4.395	  26.295
  526	  0.0700	  4.4037	   4.404	  26.345
  527	  0.0704	  4.4113	   4.411	  26.395
  528	  0.0704	  4.4200	   4.420	  26.445
  529	  0.0708	  4.4288	   4.429	  26.495
  530	  0.0704	  4.4362	   4.436	  26.545
  531	  0.0704	  4.4450	   4.445	  26.595
  532	  0.0712	  4.4538	   4.454	  26.645
  533	  0.0716	  4.4612	   4.461	  26.695
  534	  0.0712	  4.4700	   4.470	  26.745
  535	  0.0720	  4.4787	   4.479	  26.795
  536	  0.0716	  4.4862	   4.486	  26.845
  537	  0.0720	  4.4950	   4.495	  26.895
  538	  0.0720	  4.5037	   4.504	  26.945
  539	  0.0720	  4.5113	   4.511	  26.995
  540	  0.0728	  4.5200	   4.520	  27.045
  541	  0.0736	  4.5287	   4.529	  27.095
  542	  0.0732	  4.5363	   4.536	  27.145
  543	  0.0732	  4.5450	   4.545	  27.195
  544	  0.0728	  4.5538	   4.554	  27.245
  545	  0.0736	  4.5625	   4.562	  27.295
  546	  0.0736	  4.5700	   4.570	  27.345
  547	  0.0736	  4.5788	   4.579	  27.395
  548	  0.0736	  4.5875	   4.588	  27.445
  549	  0.0744	  4.5950	   4.595	  27.495
  550	  0.0744	  4.6037	   4.604	  27.545
  551	  0.0740	  4.6125	   4.612	  27.595
  552	  0.0744	  4.6212	   4.621	  27.645
  553	  0.0748	  4.6287	   4.629	  27.695
  554	  0.0744	  4.6375	   4.637	  27.745
  555	  0.0744	  4.6462	   4.646	  27.795
  556	  0.0748	  4.6537	   4.654	  27.845
  557	  0.0752	  4.6625	   4.662	  27.895
  558	  0.0748	  4.6712	   4.671	  27.945
  559	  0.0752	  4.6788	   4.679	  27.995
  560	  0.0748	  4.6875	   4.688	  28.045
  561	  0.0752	  4.6962	   4.696	  28.095
  562	  0.0756	  4.7037	   4.704	  28.145
  563	  0.0756	  4.7125	   4.713	  28.195
  564	  0.0760	  4.7213	   4.721	  28.245
  565	  0.0760	  4.7287	   4.729	  28.295
  566	  0.0768	  4.7375	   4.737	  28.345
  567	  0.0764	  4.7462	   4.746	  28.395
  568	  0.0768	  4.7550	   4.755	  28.445
  569	  0.0768	  4.7625	   4.762	  28.495
  570	  0.0772	  4.7712	   4.771	  28.545
  571	  0.0776	  4.7800	   4.780	  28.595
  572	  0.0780	  4.7875	   4.787	  28.645
  573	  0.0776	  4.7962	   4.796	  28.695
  574	  0.0780	  4.8050	   4.805	  28.745
  575	  0.0780	  4.8125	   4.812	  28.795
  576	  0.0780	  4.8212	   4.821	  28.845
  577	  0.0788	  4.8300	   4.830	  28.895
  578	  0.0784	  4.8387	   4.839	  28.945
  579	  0.0788	  4.8463	   4.846	  28.995
  580	  0.0788	  4.8550	   4.855	  29.045
  581	  0.0788	  4.8637	   4.864	  29.095
  582	  0.0792	  4.8712	   4.871	  29.145
  583	  0.0788	  4.8800	   4.880	  29.195
  584	  0.0788	  4.8888	   4.889	  29.245
  585	  0.0792	  4.8975	   4.898	  29.295
  586	  0.0796	  4.9050	   4.905	  29.345
  587	  0.0800	  4.9137	   4.914	  29.395
  588	  0.0796	  4.9225	   4.922	  29.445
  589	  0.0800	  4.9300	   4.930	  29.495
  590	  0.0800	  4.9387	   4.939	  29.545
  591	  0.0808	  4.9475	   4.947	  29.595
  592	  0.0808	  4.9550	   4.955	  29.645
  593	  0.0812	  4.9637	   4.964	  29.695
  594	  0.0812	  4.9725	   4.972	  29.745
  595	  0.0816	  4.9812	   4.981	  29.795
  596	  0.0816	  4.9887	   4.989	  29.845
  597	  0.0816	  4.9975	   4.997	  29.895
  598	  0.0816	  5.0062	   5.006	  29.945
  599	  0.0816	  5.0150	   5.015	  29.995
  600	  0.0820	  5.0225	   5.023	  30.045
  601	  0.0824	  5.0312	   5.031	  30.095
  602	  0.0824	  5.0400	   5.040	  30.145
  603	  0.0832	  5.0475	   5.047	  30.195
  604	  0.0836	  5.0563	   5.056	  30.245
  605	  0.0836	  5.0650	   5.065	  30.295
  606	  0.0832	  5.0738	   5.074	  30.345
  607	  0.0832	  5.0812	   5.081	  30.395
  608	  0.0844	  5.0900	   5.090	  30.445
  609	  0.0844	  5.0988	   5.099	  30.495
  610	  0.0844	  5.1075	   5.108	  30.545
  611	  0.0844	  5.1150	   5.115	  30.595
  612	  0.0840	  5.1237	   5.124	  30.645
  613	  0.0840	  5.1325	   5.132	  30.695
  614	  0.0848	  5.1400	   5.140	  30.745
  615	  0.0852	  5.1487	   5.149	  30.795
  616	  0.0844	  5.1575	   5.157	  30.845
  617	  0.0856	  5.1650	   5.165	  30.895
  618	  0.0852	  5.1737	   5.174	  30.945
  619	  0.0856	  5.1825	   5.182	  30.995
  620	  0.0856	  5.1912	   5.191	  31.045
  621	  0.0856	  5.1988	   5.199	  31.095
  622	  0.0864	  5.2075	   5.207	  31.145
  623	  0.0864	  5.2162	   5.216	  31.195
  624	  0.0864	  5.2238	   5.224	  31.245
  625	  0.0864	  5.2325	   5.233	  31.295
  626	  0.0868	  5.2413	   5.241	  31.345
  627	  0.0868	  5.2500	   5.250	  31.395
  628	  0.0868	  5.2575	   5.257	  31.445
  629	  0.0868	  5.2662	   5.266	  31.495
  630	  0.0872	  5.2750	   5.275	  31.545
  631	  0.0876	  5.2838	   5.284	  31.595
  632	  0.0872	  5.2912	   5.291	  31.645
  633	  0.0876	  5.3000	   5.300	  31.695
  634	  0.0872	  5.3087	   5.309	  31.745
  635	  0.0872	  5.3162	   5.316	  31.795
  636	  0.0876	  5.3250	   5.325	  31.845
  637	  0.0880	  5.3337	   5.334	  31.895
  638	  0.0888	  5.3412	   5.341	  31.945
  639	  0.0888	  5.3500	   5.350	  31.995
  640	  0.0896	  5.3587	   5.359	  32.045
  641	  0.0884	  5.3675	   5.367	  32.095
  642	  0.0892	  5.3750	   5.375	  32.145
  643	  0.0888	  5.3837	   5.384	  32.195
  644	  0.0888	  5.3925	   5.392	  32.245
  645	  0.0884	  5.4012	   5.401	  32.295
  646	  0.0892	  5.4088	   5.409	  32.345
  647	  0.0896	  5.4175	   5.418	  32.395
  648	  0.0896	  5.4262	   5.426	  32.445
  649	  0.0900	  5.4337	   5.434	  32.495
  650	  0.0896	  5.4425	   5.443	  32.545
  651	  0.0900	  5.4513	   5.451	  32.595
  652	  0.0904	  5.4587	   5.459	  32.645
  653	  0.0904	  5.4675	   5.467	  32.695
  654	  0.0908	  5.4762	   5.476	  32.745
  655	  0.0908	  5.4837	   5.484	  32.795
  656	  0.0916	  5.4925	   5.492	  32.845
  657	  0.0912	  5.5012	   5.501	  32.895
  658	  0.0908	  5.5087	   5.509	  32.945
  659	  0.0916	  5.5175	   5.517	  32.995
  660	  0.0920	  5.5262	   5.526	  33.045
  661	  0.0916	  5.5350	   5.535	  33.095
  662	  0.0920	  5.5425	   5.543	  33.145
  663	  0.0916	  5.5512	   5.551	  33.195
  664	  0.0920	  5.5600	   5.560	  33.245
  665	  0.0920	  5.5687	   5.569	  33.295
  666	  0.0920	  5.5763	   5.576	  33.345
  667	  0.0920	  5.5850	   5.585	  33.395
  668	  0.0928	  5.5938	   5.594	  33.445
  669	  0.0924	  5.6012	   5.601	  33.495
  670	  0.0932	  5.6100	   5.610	  33.545
  671	  0.0932	  5.6188	   5.619	  33.595
  672	  0.0940	  5.6262	   5.626	  33.645
  673	  0.0940	  5.6350	   5.635	  33.695
  674	  0.0940	  5.6437	   5.644	  33.745
  675	  0.0940	  5.6512	   5.651	  33.795
  676	  0.0944	  5.6600	   5.660	  33.845
  677	  0.0944	  5.6687	   5.669	  33.895
  678	  0.0940	  5.6775	   5.677	  33.945
  679	  0.0948	  5.6850	   5.685	  33.995
  680	  0.0944	  5.6937	   5.694	  34.045
  681	  0.0952	  5.7025	   5.702	  34.095
  682	  0.0956	  5.7100	   5.710	  34.145
  683	  0.0948	  5.7188	   5.719	  34.195
  684	  0.0956	  5.7275	   5.727	  34.245
  685	  0.0948	  5.7350	   5.735	  34.295
  686	  0.0952	  5.7438	   5.744	  34.345
  687	  0.0960	  5.7525	   5.753	  34.395
  688	  0.0956	  5.7613	   5.761	  34.445
  689	  0.0952	  5.7687	   5.769	  34.495
  690	  0.0960	  5.7775	   5.777	  34.545
  691	  0.0960	  5.7862	   5.786	  34.595
  692	  0.0960	  5.7937	   5.794	  34.645
  693	  0.0960	  5.8025	   5.802	  34.695
  694	  0.0960	  5.8112	   5.811	  34.745
  695	  0.0976	  5.8200	   5.820	  34.795
  696	  0.0972	  5.8275	   5.827	  34.845
  697	  0.0976	  5.8362	   5.836	  34.895
  698	  0.0976	  5.8450	   5.845	  34.945
  699	  0.0972	  5.8525	   5.852	  34.995
  700	  0.0976	  5.8612	   5.861	  35.045
  701	  0.0972	  5.8700	   5.870	  35.095
  702	  0.0976	  5.8775	   5.878	  35.145
  703	  0.0976	  5.8863	   5.886	  35.195
  704	  0.0980	  5.8950	   5.895	  35.245
  705	  0.0976	  5.9025	   5.902	  35.295
  706	  0.0980	  5.9112	   5.911	  35.345
  707	  0.0980	  5.9200	   5.920	  35.395
  708	  0.0980	  5.9288	   5.929	  35.445
  709	  0.0984	  5.9362	   5.936	  35.495
  710	  0.0988	  5.9450	   5.945	  35.545
  711	  0.0984	  5.9537	   5.954	  35.595
  712	  0.0992	  5.9625	   5.963	  35.645
  713	  0.0992	  5.9700	   5.970	  35.695
  714	  0.0996	  5.9787	   5.979	  35.745
  715	  0.0996	  5.9875	   5.987	  35.795
  716	  0.1004	  5.9950	   5.995	  35.845
  717	  0.1000	  6.0037	   6.004	  35.895
  718	  0.1004	  6.0125	   6.012	  35.945
  719	  0.1008	  6.0212	   6.021	  35.995
  720	  0.1008	  6.0287	   6.029	  36.045
  721	  0.1008	  6.0375	   6.037	  36.095
  722	  0.1000	  6.0450	   6.045	  36.145
  723	  0.1012	  6.0538	   6.054	  36.195
  724	  0.1012	  6.0625	   6.062	  36.245
  725	  0.1016	  6.0712	   6.071	  36.295
  726	  0.1012	  6.0787	   6.079	  36.345
  727	  0.1016	  6.0875	   6.088	  36.395
  728	  0.1012	  6.0963	   6.096	  36.445
  729	  0.1016	  6.1050	   6.105	  36.495
  730	  0.1016	  6.1125	   6.112	  36.545
  731	  0.1016	  6.1212	   6.121	  36.595
  732	  0.1028	  6.1300	   6.130	  36.645
  733	  0.1028	  6.1375	   6.137	  36.695
  734	  0.1016	  6.1462	   6.146	  36.745
  735	  0.1020	  6.1550	   6.155	  36.795
  736	  0.1024	  6.1625	   6.162	  36.845
  737	  0.1024	  6.1712	   6.171	  36.895
  738	  0.1032	  6.1800	   6.180	  36.945
  739	  0.1040	  6.1887	   6.189	  36.995
  740	  0.1032	  6.1962	   6.196	  37.045
  741	  0.1032	  6.2050	   6.205	  37.095
  742	  0.1028	  6.2137	   6.214	  37.145
  743	  0.1032	  6.2213	   6.221	  37.195
  744	  0.1036	  6.2300	   6.230	  37.245
  745	  0.1040	  6.2387	   6.239	  37.295
  746	  0.1040	  6.2475	   6.247	  37.345
  747	  0.1040	  6.2550	   6.255	  37.395
  748	  0.1040	  6.2638	   6.264	  37.445
  749	  0.1040	  6.2725	   6.273	  37.495
  750	  0.1044	  6.2800	   6.280	  37.545
  751	  0.1048	  6.2887	   6.289	  37.595
  752	  0.1048	  6.2975	   6.297	  37.645
  753	  0.1048	  6.3050	   6.305	  37.695
  754	  0.1052	  6.3137	   6.314	  37.745
  755	  0.1048	  6.3225	   6.322	  37.795
  756	  0.1052	  6.3300	   6.330	  37.845
  757	  0.1048	  6.3387	   6.339	  37.895
  758	  0.1056	  6.3475	   6.347	  37.945
  759	  0.1060	  6.3550	   6.355	  37.995
  760	  0.1060	  6.3637	   6.364	  38.045
  761	  0.1064	  6.3725	   6.372	  38.095
  762	  0.1072	  6.3812	   6.381	  38.145
  763	  0.1068	  6.3888	   6.389	  38.195
  764	  0.1068	  6.3975	   6.398	  38.245
  765	  0.1068	  6.4062	   6.406	  38.295
  766	  0.1068	  6.4137	   6.414	  38.345
  767	  0.1068	  6.4225	   6.422	  38.395
  768	  0.1072	  6.4312	   6.431	  38.445
  769	  0.1076	  6.4387	   6.439	  38.495
  770	  0.1076	  6.4475	   6.447	  38.545
  771	  0.1072	  6.4562	   6.456	  38.595
  772	  0.1076	  6.4637	   6.464	  38.645
  773	  0.1080	  6.4725	   6.472	  38.695
  774	  0.1076	  6.4812	   6.481	  38.745
  775	  0.1084	  6.4887	   6.489	  38.795
  776	  0.1084	  6.4975	   6.497	  38.845
  777	  0.1084	  6.5062	   6.506	  38.895
  778	  0.1088	  6.5150	   6.515	  38.945
  779	  0.1096	  6.5225	   6.523	  38.995
  780	  0.1088	  6.5312	   6.531	  39.045
  781	  0.1092	  6.5400	   6.540	  39.095
  782	  0.1088	  6.5475	   6.547	  39.145
  783	  0.1092	  6.5562	   6.556	  39.195
  784	  0.1096	  6.5650	   6.565	  39.245
  785	  0.1100	  6.5725	   6.572	  39.295
  786	  0.1096	  6.5812	   6.581	  39.345
  787	  0.1100	  6.5887	   6.589	  39.395
  788	  0.1104	  6.5975	   6.597	  39.445
  789	  0.1100	  6.6062	   6.606	  39.495
  790	  0.1100	  6.6150	   6.615	  39.545
  791	  0.1104	  6.6225	   6.622	  39.595
  792	  0.1108	  6.6312	   6.631	  39.645
  793	  0.1112	  6.6400	   6.640	  39.695
  794	  0.1116	  6.6475	   6.648	  39.745
  795	  0.1116	  6.6562	   6.656	  39.795
  796	  0.1112	  6.6650	   6.665	  39.845
  797	  0.1112	  6.6725	   6.672	  39.895
  798	  0.1116	  6.6812	   6.681	  39.945
  799	  0.1124	  6.6900	   6.690	  39.995
  800	  0.1120	  6.6975	   6.697	  40.045
  801	  0.1120	  6.7062	   6.706	  40.095
  802	  0.1128	  6.7150	   6.715	  40.145
  803	  0.1124	  6.7225	   6.722	  40.195
  804	  0.1120	  6.7312	   6.731	  40.245
  805	  0.1124	  6.7400	   6.740	  40.295
  806	  0.1136	  6.7475	   6.747	  40.345
  807	  0.1132	  6.7562	   6.756	  40.395
  808	  0.1136	  6.7650	   6.765	  40.445
  809	  0.1132	  6.7725	   6.773	  40.495
  810	  0.1136	  6.7812	   6.781	  40.545
  811	  0.1128	  6.7900	   6.790	  40.595
  812	  0.1128	  6.7975	   6.797	  40.645
  813	  0.1132	  6.8062	   6.806	  40.695
  814	  0.1136	  6.8150	   6.815	  40.745
  815	  0.1136	  6.8225	   6.822	  40.795
  816	  0.1136	  6.8312	   6.831	  40.845
  817	  0.1136	  6.8400	   6.840	  40.895
  818	  0.1144	  6.8475	   6.847	  40.945
  819	  0.1144	  6.8562	   6.856	  40.995
  820	  0.1144	  6.8650	   6.865	  41.045
  821	  0.1144	  6.8725	   6.872	  41.095
  822	  0.1152	  6.8812	   6.881	  41.145
  823	  0.1144	  6.8900	   6.890	  41.195
  824	  0.1148	  6.8975	   6.898	  41.245
  825	  0.1156	  6.9062	   6.906	  41.295
  826	  0.1156	  6.9150	   6.915	  41.345
  827	  0.1152	  6.9225	   6.922	  41.395
  828	  0.1152	  6.9312	   6.931	  41.445
  829	  0.1156	  6.9400	   6.940	  41.495
  830	  0.1156	  6.9475	   6.947	  41.545
  831	  0.1164	  6.9562	   6.956	  41.595
  832	  0.1168	  6.9650	   6.965	  41.645
  833	  0.1160	  6.9725	   6.972	  41.695
  834	  0.1160	  6.9812	   6.981	  41.745
  835	  0.1168	  6.9900	   6.990	  41.795
  836	  0.1164	  6.9975	   6.997	  41.845
  837	  0.1160	  7.0062	   7.006	  41.895
  838	  0.1164	  7.0150	   7.015	  41.945
  839	  0.1168	  7.0225	   7.023	  41.995
  840	  0.1164	  7.0312	   7.031	  42.045
  841	  0.1168	  7.0400	   7.040	  42.095
  842	  0.1168	  7.0475	   7.047	  42.145
  843	  0.1172	  7.0562	   7.056	  42.195
  844	  0.1172	  7.0650	   7.065	  42.245
  845	  0.1172	  7.0725	   7.072	  42.295
  846	  0.1172	  7.0812	   7.081	  42.345
  847	  0.1176	  7.0900	   7.090	  42.395
  848	  0.1176	  7.0975	   7.097	  42.445
  849	  0.1180	  7.1062	   7.106	  42.495
  850	  0.1176	  7.1137	   7.114	  42.545
  851	  0.1176	  7.1225	   7.122	  42.595
  852	  0.1180	  7.1312	   7.131	  42.645
  853	  0.1184	  7.1400	   7.140	  42.695
  854	  0.1184	  7.1475	   7.148	  42.745
  855	  0.1192	  7.1562	   7.156	  42.795
  856	  0.1192	  7.1650	   7.165	  42.845
  857	  0.1188	  7.1725	   7.172	  42.895
  858	  0.1188	  7.1812	   7.181	  42.945
  859	  0.1188	  7.1900	   7.190	  42.995
  860	  0.1192	  7.1988	   7.199	  43.045
  861	  0.1192	  7.2062	   7.206	  43.095
  862	  0.1192	  7.2150	   7.215	  43.145
  863	  0.1200	  7.2237	   7.224	  43.195
  864	  0.1200	  7.2312	   7.231	  43.245
  865	  0.1204	  7.2400	   7.240	  43.295
  866	  0.1208	  7.2475	   7.247	  43.345
  867	  0.1204	  7.2562	   7.256	  43.395
  868	  0.1196	  7.2650	   7.265	  43.445
  869	  0.1200	  7.2725	   7.273	  43.495
  870	  0.1208	  7.2812	   7.281	  43.545
  871	  0.1208	  7.2900	   7.290	  43.595
  872	  0.1212	  7.2975	   7.297	  43.645
  873	  0.1216	  7.3062	   7.306	  43.695
  874	  0.1216	  7.3150	   7.315	  43.745
  875	  0.1216	  7.3225	   7.322	  43.795
  876	  0.1220	  7.3312	   7.331	  43.845
  877	  0.1224	  7.3400	   7.340	  43.895
  878	  0.1224	  7.3487	   7.349	  43.945
  879	  0.1228	  7.3562	   7.356	  43.995
  880	  0.1220	  7.3650	   7.365	  44.045
  881	  0.1224	  7.3725	   7.372	  44.095
  882	  0.1224	  7.3812	   7.381	  44.145
  883	  0.1224	  7.3900	   7.390	  44.195
  884	  0.1220	  7.3975	   7.398	  44.245
  885	  0.1224	  7.4062	   7.406	  44.295
  886	  0.1228	  7.4150	   7.415	  44.345
  887	  0.1232	  7.4225	   7.422	  44.395
  888	  0.1228	  7.4312	   7.431	  44.445
  889	  0.1232	  7.4400	   7.440	  44.495
  890	  0.1232	  7.4488	   7.449	  44.545
  891	  0.1232	  7.4562	   7.456	  44.595
  892	  0.1232	  7.4650	   7.465	  44.645
  893	  0.1236	  7.4737	   7.474	  44.695
  894	  0.1240	  7.4812	   7.481	  44.745
  895	  0.1240	  7.4900	   7.490	  44.795
  896	  0.1252	  7.4987	   7.499	  44.845
  897	  0.1248	  7.5062	   7.506	  44.895
  898	  0.1248	  7.5150	   7.515	  44.945
  899	  0.1252	  7.5237	   7.524	  44.995
  900	  0.1244	  7.5312	   7.531	  45.045
  901	  0.1252	  7.5400	   7.540	  45.095
  902	  0.1248	  7.5475	   7.547	  45.145
  903	  0.1252	  7.5562	   7.556	  45.195
  904	  0.1252	  7.5650	   7.565	  45.245
  905	  0.1256	  7.5725	   7.572	  45.295
  906	  0.1252	  7.5812	   7.581	  45.345
  907	  0.1252	  7.5900	   7.590	  45.395
  908	  0.1260	  7.5987	   7.599	  45.445
  909	  0.1260	  7.6062	   7.606	  45.495
  910	  0.1260	  7.6150	   7.615	  45.545
  911	  0.1264	  7.6225	   7.622	  45.595
  912	  0.1264	  7.6312	   7.631	  45.645
  913	  0.1268	  7.6400	   7.640	  45.695
  914	  0.1268	  7.6475	   7.648	  45.745
  915	  0.1268	  7.6562	   7.656	  45.795
  916	  0.1272	  7.6650	   7.665	  45.845
  917	  0.1276	  7.6725	   7.672	  45.895
  918	  0.1276	  7.6812	   7.681	  45.945
  919	  0.1280	  7.6900	   7.690	  45.995
  920	  0.1280	  7.6975	   7.697	  46.045
  921	  0.1276	  7.7062	   7.706	  46.095
  922	  0.1284	  7.7150	   7.715	  46.145
  923	  0.1276	  7.7237	   7.724	  46.195
  924	  0.1280	  7.7312	   7.731	  46.245
  925	  0.1280	  7.7400	   7.740	  46.295
  926	  0.1284	  7.7487	   7.749	  46.345
  927	  0.1280	  7.7562	   7.756	  46.395
  928	  0.1284	  7.7650	   7.765	  46.445
  929	  0.1284	  7.7737	   7.774	  46.495
  930	  0.1284	  7.7812	   7.781	  46.545
  931	  0.1284	  7.7900	   7.790	  46.595
  932	  0.1280	  7.7975	   7.797	  46.645
  933	  0.1292	  7.8062	   7.806	  46.695
  934	  0.1292	  7.8150	   7.815	  46.745
  935	  0.1292	  7.8225	   7.822	  46.795
  936	  0.1288	  7.8312	   7.831	  46.845
  937	  0.1292	  7.8400	   7.840	  46.895
  938	  0.1292	  7.8475	   7.847	  46.945
  939	  0.1296	  7.8562	   7.856	  46.995
  940	  0.1300	  7.8650	   7.865	  47.045
  941	  0.1300	  7.8725	   7.872	  47.095
  942	  0.1296	  7.8812	   7.881	  47.145
  943	  0.1296	  7.8900	   7.890	  47.195
  944	  0.1300	  7.8987	   7.899	  47.245
  945	  0.1304	  7.9062	   7.906	  47.295
  946	  0.1296	  7.9150	   7.915	  47.345
  947	  0.1300	  7.9237	   7.924	  47.395
  948	  0.1304	  7.9312	   7.931	  47.445
  949	  0.1308	  7.9400	   7.940	  47.495
  950	  0.1312	  7.9488	   7.949	  47.545
  951	  0.1308	  7.9562	   7.956	  47.595
  952	  0.1312	  7.9650	   7.965	  47.645
  953	  0.1308	  7.9737	   7.974	  47.695
  954	  0.1312	  7.9812	   7.981	  47.745
  955	  0.1316	  7.9900	   7.990	  47.795
  956	  0.1316	  7.9987	   7.999	  47.845
  957	  0.1316	  8.0062	   8.006	  47.895
  958	  0.1316	  8.0150	   8.015	  47.945
  959	  0.1316	  8.0237	   8.024	  47.995
  960	  0.1312	  8.0312	   8.031	  48.045
  961	  0.1316	  8.0400	   8.040	  48.095
  962	  0.1324	  8.0487	   8.049	  48.145
  963	  0.1320	  8.0575	   8.057	  48.195
  964	  0.1320	  8.0650	   8.065	  48.245
  965	  0.1324	  8.0737	   8.074	  48.295
  966	  0.1328	  8.0813	   8.081	  48.345
  967	  0.1332	  8.0900	   8.090	  48.395
  968	  0.1324	  8.0988	   8.099	  48.445
  969	  0.1324	  8.1062	   8.106	  48.495
  970	  0.1332	  8.1150	   8.115	  48.545
  971	  0.1332	  8.1237	   8.124	  48.595
  972	  0.1332	  8.1312	   8.131	  48.645
  973	  0.1336	  8.1400	   8.140	  48.695
  974	  0.1328	  8.1487	   8.149	  48.745
  975	  0.1336	  8.1575	   8.158	  48.795
  976	  0.1340	  8.1650	   8.165	  48.845
  977	  0.1336	  8.1737	   8.174	  48.895
  978	  0.1340	  8.1825	   8.182	  48.945
  979	  0.1340	  8.1900	   8.190	  48.995
  980	  0.1336	  8.1987	   8.199	  49.045
  981	  0.1344	  8.2075	   8.207	  49.095
  982	  0.1348	  8.2150	   8.215	  49.145
  983	  0.1344	  8.2238	   8.224	  49.195
  984	  0.1344	  8.2325	   8.233	  49.245
  985	  0.1356	  8.2413	   8.241	  49.295
  986	  0.1344	  8.2487	   8.249	  49.345
  987	  0.1352	  8.2575	   8.257	  49.395
  988	  0.1356	  8.2650	   8.265	  49.445
  989	  0.1360	  8.2737	   8.274	  49.495
  990	  0.1352	  8.2825	   8.283	  49.545
  991	  0.1356	  8.2913	   8.291	  49.595
  992	  0.1364	  8.2987	   8.299	  49.645
  993	  0.1364	  8.3075	   8.307	  49.695
  994	  0.1360	  8.3162	   8.316	  49.745
  995	  0.1368	  8.3237	   8.324	  49.795
  996	  0.1376	  8.3325	   8.332	  49.845
  997	  0.1368	  8.3412	   8.341	  49.895
  998	  0.1368	  8.3488	   8.349	  49.945
  999	  0.1372	  8.3575	   8.358	  49.995
 1000	  0.1368	  8.3650	   8.365	  50.045
 1001	  0.1376	  8.3737	   8.374	  50.095
 1002	  0.1372	  8.3825	   8.382	  50.145
 1003	  0.1372	  8.3912	   8.391	  50.195
 1004	  0.1376	  8.3987	   8.399	  50.245
 1005	  0.1372	  8.4075	   8.408	  50.295
 1006	  0.1380	  8.4163	   8.416	  50.345
 1007	  0.1388	  8.4237	   8.424	  50.395
 1008	  0.1376	  8.4325	   8.432	  50.445
 1009	  0.1384	  8.4412	   8.441	  50.495
 1010	  0.1384	  8.4500	   8.450	  50.545
 1011	  0.1388	  8.4575	   8.457	  50.595
 1012	  0.1392	  8.4662	   8.466	  50.645
 1013	  0.1392	  8.4750	   8.475	  50.695
 1014	  0.1388	  8.4825	   8.483	  50.745
 1015	  0.1396	  8.4913	   8.491	  50.795
 1016	  0.1396	  8.5000	   8.500	  50.845
 1017	  0.1388	  8.5075	   8.507	  50.895
 1018	  0.1396	  8.5162	   8.516	  50.945
 1019	  0.1396	  8.5250	   8.525	  50.995
 1020	  0.1400	  8.5325	   8.533	  51.045
 1021	  0.1400	  8.5413	   8.541	  51.095
 1022	  0.1396	  8.5500	   8.550	  51.145
 1023	  0.1404	  8.5575	   8.557	  51.195
 1024	  0.1396	  8.5662	   8.566	  51.245
 1025	  0.1396	  8.5750	   8.575	  51.295
 1026	  0.1400	  8.5825	   8.582	  51.345
 1027	  0.1404	  8.5912	   8.591	  51.395
 1028	  0.1404	  8.6000	   8.600	  51.445
 1029	  0.1404	  8.6075	   8.608	  51.495
 1030	  0.1408	  8.6163	   8.616	  51.545
 1031	  0.1404	  8.6250	   8.625	  51.595
 1032	  0.1408	  8.6325	   8.632	  51.645
 1033	  0.1408	  8.6412	   8.641	  51.695
 1034	  0.1408	  8.6500	   8.650	  51.745
 1035	  0.1408	  8.6575	   8.658	  51.795
 1036	  0.1408	  8.6663	   8.666	  51.845
 1037	  0.1412	  8.6750	   8.675	  51.895
 1038	  0.1412	  8.6825	   8.682	  51.945
 1039	  0.1412	  8.6912	   8.691	  51.995
 1040	  0.1424	  8.7000	   8.700	  52.045
 1041	  0.1424	  8.7087	   8.709	  52.095
 1042	  0.1420	  8.7162	   8.716	  52.145
 1043	  0.1416	  8.7250	   8.725	  52.195
 1044	  0.1420	  8.7337	   8.734	  52.245
 1045	  0.1420	  8.7413	   8.741	  52.295
 1046	  0.1424	  8.7500	   8.750	  52.345
 1047	  0.1428	  8.7587	   8.759	  52.395
 1048	  0.1428	  8.7662	   8.766	  52.445
 1049	  0.1432	  8.7750	   8.775	  52.495
 1050	  0.1424	  8.7837	   8.784	  52.545
 1051	  0.1420	  8.7913	   8.791	  52.595
 1052	  0.1428	  8.8000	   8.800	  52.645
 1053	  0.1428	  8.8088	   8.809	  52.695
 1054	  0.1436	  8.8162	   8.816	  52.745
 1055	  0.1436	  8.8250	   8.825	  52.795
 1056	  0.1432	  8.8337	   8.834	  52.845
 1057	  0.1424	  8.8412	   8.841	  52.895
 1058	  0.1436	  8.8500	   8.850	  52.945
 1059	  0.1436	  8.8587	   8.859	  52.995
 1060	  0.1436	  8.8663	   8.866	  53.045
 1061	  0.1432	  8.8750	   8.875	  53.095
 1062	  0.1440	  8.8837	   8.884	  53.145
 1063	  0.1436	  8.8912	   8.891	  53.195
 1064	  0.1436	  8.9000	   8.900	  53.245
 1065	  0.1440	  8.9087	   8.909	  53.295
 1066	  0.1440	  8.9163	   8.916	  53.345
 1067	  0.1444	  8.9250	   8.925	  53.395
 1068	  0.1444	  8.9338	   8.934	  53.445
 1069	  0.1444	  8.9412	   8.941	  53.495
 1070	  0.1432	  8.9500	   8.950	  53.545
 1071	  0.1440	  8.9587	   8.959	  53.595
 1072	  0.1444	  8.9675	   8.967	  53.645
 1073	  0.1448	  8.9750	   8.975	  53.695
 1074	  0.1448	  8.9837	   8.984	  53.745
 1075	  0.1448	  8.9925	   8.992	  53.795
 1076	  0.1456	  9.0000	   9.000	  53.845
 1077	  0.1456	  9.0087	   9.009	  53.895
 1078	  0.1452	  9.0175	   9.017	  53.945
 1079	  0.1448	  9.0250	   9.025	  53.995
 1080	  0.1452	  9.0337	   9.034	  54.045
 1081	  0.1456	  9.0425	   9.042	  54.095
 1082	  0.1460	  9.0500	   9.050	  54.145
 1083	  0.1456	  9.0588	   9.059	  54.195
 1084	  0.1460	  9.0675	   9.068	  54.245
 1085	  0.1468	  9.0750	   9.075	  54.295
 1086	  0.1464	  9.0837	   9.084	  54.345
 1087	  0.1464	  9.0925	   9.092	  54.395
 1088	  0.1460	  9.1012	   9.101	  54.445
 1089	  0.1460	  9.1087	   9.109	  54.495
 1090	  0.1464	  9.1175	   9.117	  54.545
 1091	  0.1468	  9.1263	   9.126	  54.595
 1092	  0.1464	  9.1337	   9.134	  54.645
 1093	  0.1472	  9.1425	   9.142	  54.695
 1094	  0.1472	  9.1512	   9.151	  54.745
 1095	  0.1484	  9.1600	   9.160	  54.795
 1096	  0.1476	  9.1675	   9.167	  54.845
 1097	  0.1476	  9.1762	   9.176	  54.895
 1098	  0.1472	  9.1850	   9.185	  54.945
 1099	  0.1480	  9.1925	   9.193	  54.995
 1100	  0.1484	  9.2013	   9.201	  55.045
 1101	  0.1480	  9.2100	   9.210	  55.095
 1102	  0.1480	  9.2175	   9.217	  55.145
 1103	  0.1484	  9.2262	   9.226	  55.195
 1104	  0.1480	  9.2350	   9.235	  55.245
 1105	  0.1480	  9.2437	   9.244	  55.295
 1106	  0.1480	  9.2513	   9.251	  55.345
 1107	  0.1480	  9.2600	   9.260	  55.395
 1108	  0.1484	  9.2688	   9.269	  55.445
 1109	  0.1484	  9.2775	   9.278	  55.495
 1110	  0.1492	  9.2850	   9.285	  55.545
 1111	  0.1488	  9.2937	   9.294	  55.595
 1112	  0.1484	  9.3025	   9.302	  55.645
 1113	  0.1484	  9.3112	   9.311	  55.695
 1114	  0.1488	  9.3187	   9.319	  55.745
 1115	  0.1492	  9.3275	   9.327	  55.795
 1116	  0.1492	  9.3362	   9.336	  55.845
 1117	  0.1492	  9.3438	   9.344	  55.895
 1118	  0.1488	  9.3525	   9.352	  55.945
 1119	  0.1496	  9.3612	   9.361	  55.995
 1120	  0.1496	  9.3687	   9.369	  56.045
 1121	  0.1496	  9.3775	   9.377	  56.095
 1122	  0.1492	  9.3862	   9.386	  56.145
 1123	  0.1492	  9.3950	   9.395	  56.195
 1124	  0.1500	  9.4025	   9.403	  56.245
 1125	  0.1504	  9.4113	   9.411	  56.295
 1126	  0.1504	  9.4200	   9.420	  56.345
 1127	  0.1508	  9.4288	   9.429	  56.395
 1128	  0.1500	  9.4362	   9.436	  56.445
 1129	  0.1500	  9.4450	   9.445	  56.495
 1130	  0.1500	  9.4537	   9.454	  56.545
 1131	  0.1504	  9.4612	   9.461	  56.595
 1132	  0.1504	  9.4700	   9.470	  56.645
 1133	  0.1504	  9.4788	   9.479	  56.695
 1134	  0.1504	  9.4875	   9.488	  56.745
 1135	  0.1508	  9.4950	   9.495	  56.795
 1136	  0.1508	  9.5037	   9.504	  56.845
 1137	  0.1516	  9.5125	   9.512	  56.895
 1138	  0.1516	  9.5212	   9.521	  56.945
 1139	  0.1512	  9.5287	   9.529	  56.995
 1140	  0.1512	  9.5375	   9.537	  57.045
 1141	  0.1516	  9.5462	   9.546	  57.095
 1142	  0.1512	  9.5550	   9.555	  57.145
 1143	  0.1516	  9.5625	   9.562	  57.195
 1144	  0.1512	  9.5712	   9.571	  57.245
 1145	  0.1512	  9.5800	   9.580	  57.295
 1146	  0.1512	  9.5875	   9.587	  57.345
 1147	  0.1520	  9.5962	   9.596	  57.395
 1148	  0.1520	  9.6050	   9.605	  57.445
 1149	  0.1524	  9.6137	   9.614	  57.495
 1150	  0.1516	  9.6213	   9.621	  57.545
 1151	  0.1520	  9.6300	   9.630	  57.595
 1152	  0.1516	  9.6388	   9.639	  57.645
 1153	  0.1524	  9.6462	   9.646	  57.695
 1154	  0.1520	  9.6550	   9.655	  57.745
 1155	  0.1524	  9.6637	   9.664	  57.795
 1156	  0.1524	  9.6725	   9.672	  57.845
 1157	  0.1520	  9.6800	   9.680	  57.895
 1158	  0.1528	  9.6887	   9.689	  57.945
 1159	  0.1532	  9.6975	   9.698	  57.995
 1160	  0.1528	  9.7063	   9.706	  58.045
 1161	  0.1532	  9.7137	   9.714	  58.095
 1162	  0.1536	  9.7225	   9.722	  58.145
 1163	  0.1540	  9.7312	   9.731	  58.195
 1164	  0.1528	  9.7400	   9.740	  58.245
 1165	  0.1540	  9.7475	   9.747	  58.295
 1166	  0.1540	  9.7562	   9.756	  58.345
 1167	  0.1536	  9.7650	   9.765	  58.395
 1168	  0.1540	  9.7725	   9.773	  58.445
 1169	  0.1540	  9.7812	   9.781	  58.495
 1170	  0.1536	  9.7900	   9.790	  58.545
 1171	  0.1544	  9.7975	   9.797	  58.595
 1172	  0.1544	  9.8062	   9.806	  58.645
 1173	  0.1540	  9.8150	   9.815	  58.695
 1174	  0.1540	  9.8237	   9.824	  58.745
 1175	  0.1544	  9.8325	   9.832	  58.795
 1176	  0.1540	  9.8400	   9.840	  58.845
 1177	  0.1544	  9.8488	   9.849	  58.895
 1178	  0.1540	  9.8575	   9.858	  58.945
 1179	  0.1540	  9.8650	   9.865	  58.995
 1180	  0.1540	  9.8737	   9.874	  59.045
 1181	  0.1536	  9.8825	   9.882	  59.095
 1182	  0.1540	  9.8900	   9.890	  59.145
 1183	  0.1548	  9.8987	   9.899	  59.195
 1184	  0.1548	  9.9075	   9.907	  59.245
 1185	  0.1552	  9.9150	   9.915	  59.295
 1186	  0.1556	  9.9237	   9.924	  59.345
 1187	  0.1548	  9.9325	   9.932	  59.395
 1188	  0.1560	  9.9412	   9.941	  59.445
 1189	  0.1560	  9.9487	   9.949	  59.495
 1190	  0.1560	  9.9575	   9.957	  59.545
 1191	  0.1564	  9.9662	   9.966	  59.595
 1192	  0.1560	  9.9738	   9.974	  59.645
 1193	  0.1556	  9.9825	   9.983	  59.695
 1194	  0.1556	  9.9913	   9.991	  59.745
 1195	  0.1560	 10.0000	  10.000	  59.795
 1196	  0.1564	 10.0075	  10.007	  59.845
 1197	  0.1560	 10.0162	  10.016	  59.895
 1198	  0.1568	 10.0250	  10.025	  59.945
 1199	  0.1576	 10.0325	  10.032	  59.995
 1200	  0.1572	 10.0413	  10.041	  60.045
 1201	  0.1576	 10.0500	  10.050	  60.095
 1202	  0.1572	 10.0575	  10.057	  60.145
 1203	  0.1572	 10.0662	  10.066	  60.195
 1204	  0.1580	 10.0750	  10.075	  60.245
 1205	  0.1584	 10.0837	  10.084	  60.295
 1206	  0.1580	 10.0912	  10.091	  60.345
 1207	  0.1576	 10.1000	  10.100	  60.395
 1208	  0.1580	 10.1087	  10.109	  60.445
 1209	  0.1576	 10.1163	  10.116	  60.495
 1210	  0.1584	 10.1250	  10.125	  60.545
 1211	  0.1588	 10.1337	  10.134	  60.595
 1212	  0.1584	 10.1412	  10.141	  60.645
 1213	  0.1584	 10.1500	  10.150	  60.695
 1214	  0.1580	 10.1587	  10.159	  60.745
 1215	  0.1580	 10.1663	  10.166	  60.795
 1216	  0.1584	 10.1750	  10.175	  60.845
 1217	  0.1584	 10.1838	  10.184	  60.895
 1218	  0.1588	 10.1925	  10.193	  60.945
 1219	  0.1592	 10.2000	  10.200	  60.995
 1220	  0.1592	 10.2087	  10.209	  61.045
 1221	  0.1584	 10.2175	  10.217	  61.095
 1222	  0.1580	 10.2250	  10.225	  61.145
 1223	  0.1584	 10.2337	  10.234	  61.195
 1224	  0.1588	 10.2425	  10.242	  61.245
 1225	  0.1588	 10.2500	  10.250	  61.295
 1226	  0.1584	 10.2587	  10.259	  61.345
 1227	  0.1588	 10.2675	  10.267	  61.395
 1228	  0.1592	 10.2762	  10.276	  61.445
 1229	  0.1592	 10.2837	  10.284	  61.495
 1230	  0.1600	 10.2925	  10.292	  61.545
 1231	  0.1600	 10.3012	  10.301	  61.595
 1232	  0.1600	 10.3088	  10.309	  61.645
 1233	  0.1596	 10.3175	  10.318	  61.695
 1234	  0.1596	 10.3250	  10.325	  61.745
 1235	  0.1600	 10.3337	  10.334	  61.795
 1236	  0.1604	 10.3425	  10.342	  61.845
 1237	  0.1604	 10.3500	  10.350	  61.895
 1238	  0.1600	 10.3587	  10.359	  61.945
 1239	  0.1600	 10.3675	  10.367	  61.995
 1240	  0.1608	 10.3750	  10.375	  62.045
 1241	  0.1612	 10.3837	  10.384	  62.095
 1242	  0.1612	 10.3925	  10.392	  62.145
 1243	  0.1608	 10.4012	  10.401	  62.195
 1244	  0.1608	 10.4087	  10.409	  62.245
 1245	  0.1612	 10.4175	  10.417	  62.295
 1246	  0.1612	 10.4250	  10.425	  62.345
 1247	  0.1612	 10.4338	  10.434	  62.395
 1248	  0.1612	 10.4425	  10.443	  62.445
 1249	  0.1616	 10.4513	  10.451	  62.495
 1250	  0.1608	 10.4587	  10.459	  62.545
 1251	  0.1604	 10.4675	  10.467	  62.595
 1252	  0.1608	 10.4750	  10.475	  62.645
 1253	  0.1612	 10.4837	  10.484	  62.695
 1254	  0.1616	 10.4925	  10.492	  62.745
 1255	  0.1616	 10.5012	  10.501	  62.795
 1256	  0.1624	 10.5087	  10.509	  62.845
 1257	  0.1616	 10.5175	  10.517	  62.895
 1258	  0.1616	 10.5262	  10.526	  62.945
 1259	  0.1616	 10.5337	  10.534	  62.995
 1260	  0.1616	 10.5425	  10.542	  63.045
 1261	  0.1620	 10.5512	  10.551	  63.095
 1262	  0.1616	 10.5600	  10.560	  63.145
 1263	  0.1620	 10.5675	  10.568	  63.195
 1264	  0.1624	 10.5763	  10.576	  63.245
 1265	  0.1624	 10.5837	  10.584	  63.295
 1266	  0.1628	 10.5925	  10.592	  63.345
 1267	  0.1628	 10.6012	  10.601	  63.395
 1268	  0.1632	 10.6087	  10.609	  63.445
 1269	  0.1628	 10.6175	  10.617	  63.495
 1270	  0.1636	 10.6262	  10.626	  63.545
 1271	  0.1624	 10.6337	  10.634	  63.595
 1272	  0.1632	 10.6425	  10.642	  63.645
 1273	  0.1636	 10.6512	  10.651	  63.695
 1274	  0.1632	 10.6587	  10.659	  63.745
 1275	  0.1636	 10.6675	  10.667	  63.795
 1276	  0.1636	 10.6762	  10.676	  63.845
 1277	  0.1648	 10.6838	  10.684	  63.895
 1278	  0.1648	 10.6925	  10.693	  63.945
 1279	  0.1640	 10.7013	  10.701	  63.995
 1280	  0.1640	 10.7087	  10.709	  64.045
 1281	  0.1644	 10.7175	  10.717	  64.095
 1282	  0.1644	 10.7250	  10.725	  64.145
 1283	  0.1640	 10.7337	  10.734	  64.195
 1284	  0.1648	 10.7425	  10.742	  64.245
 1285	  0.1648	 10.7512	  10.751	  64.295
 1286	  0.1644	 10.7587	  10.759	  64.345
 1287	  0.1644	 10.7675	  10.767	  64.395
 1288	  0.1644	 10.7762	  10.776	  64.445
 1289	  0.1644	 10.7837	  10.784	  64.495
 1290	  0.1648	 10.7925	  10.792	  64.545
 1291	  0.1644	 10.8012	  10.801	  64.595
 1292	  0.1652	 10.8088	  10.809	  64.645
 1293	  0.1644	 10.8175	  10.818	  64.695
 1294	  0.1648	 10.8263	  10.826	  64.745
 1295	  0.1644	 10.8350	  10.835	  64.795
 1296	  0.1656	 10.8425	  10.842	  64.845
 1297	  0.1652	 10.8512	  10.851	  64.895
 1298	  0.1652	 10.8587	  10.859	  64.945
 1299	  0.1660	 10.8675	  10.867	  64.995
 1300	  0.1660	 10.8762	  10.876	  65.045
 1301	  0.1660	 10.8837	  10.884	  65.095
 1302	  0.1660	 10.8925	  10.892	  65.145
 1303	  0.1656	 10.9012	  10.901	  65.195
 1304	  0.1660	 10.9087	  10.909	  65.245
 1305	  0.1656	 10.9175	  10.917	  65.295
 1306	  0.1664	 10.9250	  10.925	  65.345
 1307	  0.1664	 10.9338	  10.934	  65.395
 1308	  0.1664	 10.9425	  10.943	  65.445
 1309	  0.1660	 10.9513	  10.951	  65.495
 1310	  0.1668	 10.9587	  10.959	  65.545
 1311	  0.1660	 10.9675	  10.967	  65.595
 1312	  0.1664	 10.9762	  10.976	  65.645
 1313	  0.1664	 10.9837	  10.984	  65.695
 1314	  0.1664	 10.9925	  10.992	  65.745
 1315	  0.1668	 11.0012	  11.001	  65.795
 1316	  0.1672	 11.0087	  11.009	  65.845
 1317	  0.1672	 11.0175	  11.017	  65.895
 1318	  0.1672	 11.0262	  11.026	  65.945
 1319	  0.1672	 11.0337	  11.034	  65.995
 1320	  0.1676	 11.0425	  11.042	  66.045
 1321	  0.1680	 11.0512	  11.051	  66.095
 1322	  0.1676	 11.0588	  11.059	  66.145
 1323	  0.1680	 11.0675	  11.068	  66.195
 1324	  0.1680	 11.0763	  11.076	  66.245
 1325	  0.1680	 11.0837	  11.084	  66.295
 1326	  0.1684	 11.0925	  11.092	  66.345
 1327	  0.1688	 11.1012	  11.101	  66.395
 1328	  0.1684	 11.1087	  11.109	  66.445
 1329	  0.1676	 11.1175	  11.117	  66.495
 1330	  0.1680	 11.1262	  11.126	  66.545
 1331	  0.1684	 11.1337	  11.134	  66.595
 1332	  0.1680	 11.1425	  11.142	  66.645
 1333	  0.1684	 11.1512	  11.151	  66.695
 1334	  0.1684	 11.1587	  11.159	  66.745
 1335	  0.1688	 11.1675	  11.167	  66.795
 1336	  0.1688	 11.1762	  11.176	  66.845
 1337	  0.1692	 11.1838	  11.184	  66.895
 1338	  0.1692	 11.1925	  11.193	  66.945
 1339	  0.1688	 11.2013	  11.201	  66.995
 1340	  0.1684	 11.2087	  11.209	  67.045
 1341	  0.1688	 11.2175	  11.217	  67.095
 1342	  0.1688	 11.2262	  11.226	  67.145
 1343	  0.1692	 11.2337	  11.234	  67.195
 1344	  0.1688	 11.2425	  11.242	  67.245
 1345	  0.1688	 11.2512	  11.251	  67.295
 1346	  0.1684	 11.2587	  11.259	  67.345
 1347	  0.1688	 11.2675	  11.267	  67.395
 1348	  0.1696	 11.2762	  11.276	  67.445
 1349	  0.1696	 11.2837	  11.284	  67.495
 1350	  0.1696	 11.2925	  11.292	  67.545
 1351	  0.1696	 11.3012	  11.301	  67.595
 1352	  0.1700	 11.3088	  11.309	  67.645
 1353	  0.1704	 11.3175	  11.318	  67.695
 1354	  0.1704	 11.3263	  11.326	  67.745
 1355	  0.1700	 11.3337	  11.334	  67.795
 1356	  0.1700	 11.3425	  11.342	  67.845
 1357	  0.1696	 11.3512	  11.351	  67.895
 1358	  0.1704	 11.3600	  11.360	  67.945
 1359	  0.1708	 11.3675	  11.367	  67.995
 1360	  0.1704	 11.3762	  11.376	  68.045
 1361	  0.1704	 11.3837	  11.384	  68.095
 1362	  0.1708	 11.3925	  11.392	  68.145
 1363	  0.1708	 11.4012	  11.401	  68.195
 1364	  0.1708	 11.4087	  11.409	  68.245
 1365	  0.1712	 11.4175	  11.417	  68.295
 1366	  0.1708	 11.4262	  11.426	  68.345
 1367	  0.1708	 11.4338	  11.434	  68.395
 1368	  0.1712	 11.4425	  11.443	  68.445
 1369	  0.1708	 11.4513	  11.451	  68.495
 1370	  0.1708	 11.4587	  11.459	  68.545
 1371	  0.1708	 11.4675	  11.467	  68.595
 1372	  0.1704	 11.4762	  11.476	  68.645
 1373	  0.1708	 11.4837	  11.484	  68.695
 1374	  0.1704	 11.4925	  11.492	  68.745
 1375	  0.1716	 11.5012	  11.501	  68.795
 1376	  0.1712	 11.5087	  11.509	  68.845
 1377	  0.1716	 11.5175	  11.517	  68.895
 1378	  0.1716	 11.5262	  11.526	  68.945
 1379	  0.1720	 11.5337	  11.534	  68.995
 1380	  0.1724	 11.5425	  11.542	  69.045
 1381	  0.1716	 11.5512	  11.551	  69.095
 1382	  0.1716	 11.5588	  11.559	  69.145
 1383	  0.1724	 11.5675	  11.568	  69.195
 1384	  0.1720	 11.5763	  11.576	  69.245
 1385	  0.1716	 11.5837	  11.584	  69.295
 1386	  0.1724	 11.5925	  11.592	  69.345
 1387	  0.1732	 11.6012	  11.601	  69.395
 1388	  0.1720	 11.6100	  11.610	  69.445
 1389	  0.1728	 11.6175	  11.617	  69.495
 1390	  0.1732	 11.6262	  11.626	  69.545
 1391	  0.1732	 11.6350	  11.635	  69.595
 1392	  0.1732	 11.6425	  11.642	  69.645
 1393	  0.1732	 11.6512	  11.651	  69.695
 1394	  0.1732	 11.6600	  11.660	  69.745
 1395	  0.1736	 11.6675	  11.667	  69.795
 1396	  0.1724	 11.6762	  11.676	  69.845
 1397	  0.1732	 11.6838	  11.684	  69.895
 1398	  0.1732	 11.6925	  11.693	  69.945
 1399	  0.1732	 11.7013	  11.701	  69.995
 1400	  0.1732	 11.7087	  11.709	  70.045
 1401	  0.1728	 11.7175	  11.717	  70.095
 1402	  0.1728	 11.7250	  11.725	  70.145
 1403	  0.1728	 11.7337	  11.734	  70.195
 1404	  0.1732	 11.7425	  11.742	  70.245
 1405	  0.1728	 11.7512	  11.751	  70.295
 1406	  0.1732	 11.7587	  11.759	  70.345
 1407	  0.1728	 11.7675	  11.767	  70.395
 1408	  0.1736	 11.7762	  11.776	  70.445
 1409	  0.1740	 11.7837	  11.784	  70.495
 1410	  0.1740	 11.7925	  11.792	  70.545
 1411	  0.1740	 11.8012	  11.801	  70.595
 1412	  0.1740	 11.8088	  11.809	  70.645
 1413	  0.1740	 11.8175	  11.818	  70.695
 1414	  0.1740	 11.8263	  11.826	  70.745
 1415	  0.1744	 11.8337	  11.834	  70.795
 1416	  0.1744	 11.8425	  11.842	  70.845
 1417	  0.1744	 11.8512	  11.851	  70.895
 1418	  0.1744	 11.8587	  11.859	  70.945
 1419	  0.1748	 11.8675	  11.867	  70.995
 1420	  0.1744	 11.8762	  11.876	  71.045
 1421	  0.1744	 11.8837	  11.884	  71.095
 1422	  0.1752	 11.8925	  11.892	  71.145
 1423	  0.1744	 11.9012	  11.901	  71.195
 1424	  0.1744	 11.9087	  11.909	  71.245
 1425	  0.1748	 11.9175	  11.917	  71.295
 1426	  0.1744	 11.9262	  11.926	  71.345
 1427	  0.1752	 11.9338	  11.934	  71.395
 1428	  0.1752	 11.9425	  11.943	  71.445
 1429	  0.1756	 11.9513	  11.951	  71.495
 1430	  0.1752	 11.9587	  11.959	  71.545
 1431	  0.1756	 11.9675	  11.967	  71.595
 1432	  0.1760	 11.9762	  11.976	  71.645
 1433	  0.1760	 11.9837	  11.984	  71.695
 1434	  0.1760	 11.9925	  11.992	  71.745
 1435	  0.1756	 12.0012	  12.001	  71.795
 1436	  0.1756	 12.0087	  12.009	  71.845
 1437	  0.1752	 12.0175	  12.017	  71.895
 1438	  0.1760	 12.0262	  12.026	  71.945
 1439	  0.1756	 12.0337	  12.034	  71.995
 1440	  0.1760	 12.0425	  12.042	  72.045
 1441	  0.1764	 12.0512	  12.051	  72.095
 1442	  0.1764	 12.0588	  12.059	  72.145
 1443	  0.1768	 12.0675	  12.068	  72.195
 1444	  0.1764	 12.0763	  12.076	  72.245
 1445	  0.1768	 12.0837	  12.084	  72.295
 1446	  0.1776	 12.0925	  12.092	  72.345
 1447	  0.1772	 12.1012	  12.101	  72.395
 1448	  0.1772	 12.1087	  12.109	  72.445
 1449	  0.1768	 12.1175	  12.117	  72.495
 1450	  0.1772	 12.1262	  12.126	  72.545
 1451	  0.1776	 12.1337	  12.134	  72.595
 1452	  0.1772	 12.1425	  12.142	  72.645
 1453	  0.1776	 12.1512	  12.151	  72.695
 1454	  0.1772	 12.1587	  12.159	  72.745
 1455	  0.1776	 12.1675	  12.167	  72.795
 1456	  0.1772	 12.1762	  12.176	  72.845
 1457	  0.1768	 12.1850	  12.185	  72.895
 1458	  0.1776	 12.1925	  12.193	  72.945
 1459	  0.1776	 12.2013	  12.201	  72.995
 1460	  0.1780	 12.2100	  12.210	  73.045
 1461	  0.1780	 12.2175	  12.217	  73.095
 1462	  0.1776	 12.2262	  12.226	  73.145
 1463	  0.1780	 12.2350	  12.235	  73.195
 1464	  0.1772	 12.2425	  12.242	  73.245
 1465	  0.1776	 12.2512	  12.251	  73.295
 1466	  0.1780	 12.2600	  12.260	  73.345
 1467	  0.1780	 12.2675	  12.267	  73.395
 1468	  0.1784	 12.2762	  12.276	  73.445
 1469	  0.1780	 12.2850	  12.285	  73.495
 1470	  0.1784	 12.2925	  12.292	  73.545
 1471	  0.1788	 12.3012	  12.301	  73.595
 1472	  0.1784	 12.3100	  12.310	  73.645
 1473	  0.1788	 12.3187	  12.319	  73.695
 1474	  0.1792	 12.3263	  12.326	  73.745
 1475	  0.1792	 12.3350	  12.335	  73.795
 1476	  0.1792	 12.3438	  12.344	  73.845
 1477	  0.1792	 12.3512	  12.351	  73.895
 1478	  0.1796	 12.3600	  12.360	  73.945
 1479	  0.1796	 12.3687	  12.369	  73.995
 1480	  0.1792	 12.3762	  12.376	  74.045
 1481	  0.1792	 12.3850	  12.385	  74.095
 1482	  0.1800	 12.3938	  12.394	  74.145
 1483	  0.1800	 12.4025	  12.403	  74.195
 1484	  0.1796	 12.4100	  12.410	  74.245
 1485	  0.1796	 12.4187	  12.419	  74.295
 1486	  0.1800	 12.4262	  12.426	  74.345
 1487	  0.1800	 12.4338	  12.434	  74.395
 1488	  0.1804	 12.4425	  12.443	  74.445
 1489	  0.1804	 12.4513	  12.451	  74.495
 1490	  0.1800	 12.4587	  12.459	  74.545
 1491	  0.1804	 12.4675	  12.467	  74.595
 1492	  0.1808	 12.4762	  12.476	  74.645
 1493	  0.1808	 12.4837	  12.484	  74.695
 1494	  0.1812	 12.4925	  12.492	  74.745
 1495	  0.1816	 12.5012	  12.501	  74.795
 1496	  0.1812	 12.5087	  12.509	  74.845
 1497	  0.1808	 12.5175	  12.517	  74.895
 1498	  0.1808	 12.5262	  12.526	  74.945
 1499	  0.1808	 12.5337	  12.534	  74.995
 1500	  0.1816	 12.5425	  12.542	  75.045
 1501	  0.1812	 12.5512	  12.551	  75.095
 1502	  0.1816	 12.5588	  12.559	  75.145
 1503	  0.1816	 12.5675	  12.568	  75.195
 1504	  0.1812	 12.5763	  12.576	  75.245
 1505	  0.1812	 12.5850	  12.585	  75.295
 1506	  0.1816	 12.5925	  12.592	  75.345
 1507	  0.1816	 12.6012	  12.601	  75.395
 1508	  0.1816	 12.6100	  12.610	  75.445
 1509	  0.1820	 12.6187	  12.619	  75.495
 1510	  0.1816	 12.6262	  12.626	  75.545
 1511	  0.1824	 12.6350	  12.635	  75.595
 1512	  0.1824	 12.6438	  12.644	  75.645
 1513	  0.1820	 12.6512	  12.651	  75.695
 1514	  0.1824	 12.6600	  12.660	  75.745
 1515	  0.1832	 12.6687	  12.669	  75.795
 1516	  0.1832	 12.6762	  12.676	  75.845
 1517	  0.1828	 12.6850	  12.685	  75.895
 1518	  0.1828	 12.6937	  12.694	  75.945
 1519	  0.1832	 12.7013	  12.701	  75.995
 1520	  0.1828	 12.7100	  12.710	  76.045
 1521	  0.1832	 12.7188	  12.719	  76.095
 1522	  0.1828	 12.7262	  12.726	  76.145
 1523	  0.1832	 12.7350	  12.735	  76.195
 1524	  0.1828	 12.7437	  12.744	  76.245
 1525	  0.1828	 12.7525	  12.752	  76.295
 1526	  0.1828	 12.7600	  12.760	  76.345
 1527	  0.1832	 12.7688	  12.769	  76.395
 1528	  0.1832	 12.7775	  12.778	  76.445
 1529	  0.1836	 12.7850	  12.785	  76.495
 1530	  0.1828	 12.7937	  12.794	  76.545
 1531	  0.1832	 12.8025	  12.802	  76.595
 1532	  0.1828	 12.8100	  12.810	  76.645
 1533	  0.1836	 12.8187	  12.819	  76.695
 1534	  0.1836	 12.8275	  12.827	  76.745
 1535	  0.1840	 12.8350	  12.835	  76.795
 1536	  0.1840	 12.8438	  12.844	  76.845
 1537	  0.1840	 12.8525	  12.852	  76.895
 1538	  0.1840	 12.8600	  12.860	  76.945
 1539	  0.1844	 12.8687	  12.869	  76.995
 1540	  0.1840	 12.8775	  12.877	  77.045
 1541	  0.1844	 12.8862	  12.886	  77.095
 1542	  0.1844	 12.8937	  12.894	  77.145
 1543	  0.1848	 12.9025	  12.903	  77.195
 1544	  0.1852	 12.9113	  12.911	  77.245
 1545	  0.1844	 12.9187	  12.919	  77.295
 1546	  0.1844	 12.9275	  12.927	  77.345
 1547	  0.1848	 12.9362	  12.936	  77.395
 1548	  0.1852	 12.9437	  12.944	  77.445
 1549	  0.1848	 12.9525	  12.952	  77.495
 1550	  0.1848	 12.9612	  12.961	  77.545
 1551	  0.1848	 12.9688	  12.969	  77.595
 1552	  0.1848	 12.9775	  12.977	  77.645
 1553	  0.1848	 12.9862	  12.986	  77.695
 1554	  0.1852	 12.9937	  12.994	  77.745
 1555	  0.1852	 13.0025	  13.002	  77.795
 1556	  0.1852	 13.0112	  13.011	  77.845
 1557	  0.1844	 13.0200	  13.020	  77.895
 1558	  0.1852	 13.0275	  13.028	  77.945
 1559	  0.1852	 13.0363	  13.036	  77.995
 1560	  0.1856	 13.0450	  13.045	  78.045
 1561	  0.1856	 13.0525	  13.052	  78.095
 1562	  0.1848	 13.0612	  13.061	  78.145
 1563	  0.1852	 13.0700	  13.070	  78.195
 1564	  0.1852	 13.0775	  13.077	  78.245
 1565	  0.1852	 13.0862	  13.086	  78.295
 1566	  0.1852	 13.0950	  13.095	  78.345
 1567	  0.1852	 13.1037	  13.104	  78.395
 1568	  0.1852	 13.1112	  13.111	  78.445
 1569	  0.1856	 13.1200	  13.120	  78.495
 1570	  0.1856	 13.1287	  13.129	  78.545
 1571	  0.1852	 13.1362	  13.136	  78.595
 1572	  0.1852	 13.1450	  13.145	  78.645
 1573	  0.1864	 13.1537	  13.154	  78.695
 1574	  0.1856	 13.1625	  13.162	  78.745
 1575	  0.1864	 13.1700	  13.170	  78.795
 1576	  0.1856	 13.1788	  13.179	  78.845
 1577	  0.1856	 13.1875	  13.188	  78.895
 1578	  0.1856	 13.1950	  13.195	  78.945
 1579	  0.1856	 13.2037	  13.204	  78.995
 1580	  0.1852	 13.2125	  13.212	  79.045
 1581	  0.1856	 13.2200	  13.220	  79.095
 1582	  0.1860	 13.2287	  13.229	  79.145
 1583	  0.1864	 13.2375	  13.237	  79.195
 1584	  0.1872	 13.2450	  13.245	  79.245
 1585	  0.1864	 13.2537	  13.254	  79.295
 1586	  0.1868	 13.2625	  13.262	  79.345
 1587	  0.1872	 13.2700	  13.270	  79.395
 1588	  0.1864	 13.2787	  13.279	  79.445
 1589	  0.1864	 13.2875	  13.287	  79.495
 1590	  0.1868	 13.2962	  13.296	  79.545
 1591	  0.1864	 13.3038	  13.304	  79.595
 1592	  0.1864	 13.3125	  13.312	  79.645
 1593	  0.1860	 13.3212	  13.321	  79.695
 1594	  0.1868	 13.3300	  13.330	  79.745
 1595	  0.1864	 13.3375	  13.337	  79.795
 1596	  0.1864	 13.3462	  13.346	  79.845
 1597	  0.1876	 13.3550	  13.355	  79.895
 1598	  0.1868	 13.3637	  13.364	  79.945
 1599	  0.1872	 13.3713	  13.371	  79.995
 1600	  0.1876	 13.3800	  13.380	  80.045
 1601	  0.1872	 13.3888	  13.389	  80.095
 1602	  0.1872	 13.3962	  13.396	  80.145
 1603	  0.1876	 13.4050	  13.405	  80.195
 1604	  0.1880	 13.4137	  13.414	  80.245
 1605	  0.1880	 13.4225	  13.422	  80.295
 1606	  0.1872	 13.4300	  13.430	  80.345
 1607	  0.1880	 13.4387	  13.439	  80.395
 1608	  0.1876	 13.4475	  13.447	  80.445
 1609	  0.1876	 13.4550	  13.455	  80.495
 1610	  0.1880	 13.4637	  13.464	  80.545
 1611	  0.1880	 13.4725	  13.472	  80.595
 1612	  0.1876	 13.4800	  13.480	  80.645
 1613	  0.1880	 13.4887	  13.489	  80.695
 1614	  0.1884	 13.4975	  13.497	  80.745
 1615	  0.1880	 13.5050	  13.505	  80.795
 1616	  0.1880	 13.5138	  13.514	  80.845
 1617	  0.1880	 13.5225	  13.523	  80.895
 1618	  0.1888	 13.5312	  13.531	  80.945
 1619	  0.1888	 13.5387	  13.539	  80.995
 1620	  0.1888	 13.5475	  13.547	  81.045
 1621	  0.1884	 13.5562	  13.556	  81.095
 1622	  0.1884	 13.5637	  13.564	  81.145
 1623	  0.1888	 13.5725	  13.572	  81.195
 1624	  0.1888	 13.5812	  13.581	  81.245
 1625	  0.1892	 13.5900	  13.590	  81.295
 1626	  0.1892	 13.5975	  13.597	  81.345
 1627	  0.1892	 13.6062	  13.606	  81.395
 1628	  0.1888	 13.6150	  13.615	  81.445
 1629	  0.1888	 13.6225	  13.622	  81.495
 1630	  0.1888	 13.6312	  13.631	  81.545
 1631	  0.1884	 13.6400	  13.640	  81.595
 1632	  0.1892	 13.6475	  13.648	  81.645
 1633	  0.1892	 13.6562	  13.656	  81.695
 1634	  0.1888	 13.6650	  13.665	  81.745
 1635	  0.1892	 13.6737	  13.674	  81.795
 1636	  0.1888	 13.6812	  13.681	  81.845
 1637	  0.1892	 13.6900	  13.690	  81.895
 1638	  0.1896	 13.6987	  13.699	  81.945
 1639	  0.1892	 13.7075	  13.707	  81.995
 1640	  0.1896	 13.7150	  13.715	  82.045
 1641	  0.1896	 13.7238	  13.724	  82.095
 1642	  0.1892	 13.7325	  13.733	  82.145
 1643	  0.1896	 13.7400	  13.740	  82.195
 1644	  0.1900	 13.7487	  13.749	  82.245
 1645	  0.1896	 13.7575	  13.757	  82.295
 1646	  0.1896	 13.7650	  13.765	  82.345
 1647	  0.1896	 13.7737	  13.774	  82.395
 1648	  0.1896	 13.7825	  13.782	  82.445
 1649	  0.1900	 13.7900	  13.790	  82.495
 1650	  0.1904	 13.7987	  13.799	  82.545
 1651	  0.1908	 13.8075	  13.807	  82.595
 1652	  0.1904	 13.8150	  13.815	  82.645
 1653	  0.1904	 13.8237	  13.824	  82.695
 1654	  0.1912	 13.8325	  13.832	  82.745
 1655	  0.1912	 13.8412	  13.841	  82.795
 1656	  0.1900	 13.8488	  13.849	  82.845
 1657	  0.1912	 13.8575	  13.858	  82.895
 1658	  0.1908	 13.8663	  13.866	  82.945
 1659	  0.1904	 13.8737	  13.874	  82.995
 1660	  0.1908	 13.8825	  13.882	  83.045
 1661	  0.1916	 13.8912	  13.891	  83.095
 1662	  0.1912	 13.9000	  13.900	  83.145
 1663	  0.1912	 13.9075	  13.907	  83.195
 1664	  0.1908	 13.9162	  13.916	  83.245
 1665	  0.1912	 13.9250	  13.925	  83.295
 1666	  0.1908	 13.9325	  13.932	  83.345
 1667	  0.1916	 13.9412	  13.941	  83.395
 1668	  0.1916	 13.9500	  13.950	  83.445
 1669	  0.1916	 13.9575	  13.957	  83.495
 1670	  0.1916	 13.9662	  13.966	  83.545
 1671	  0.1920	 13.9750	  13.975	  83.595
 1672	  0.1924	 13.9825	  13.983	  83.645
 1673	  0.1916	 13.9913	  13.991	  83.695
 1674	  0.1924	 14.0000	  14.000	  83.745
 1675	  0.1924	 14.0087	  14.009	  83.795
 1676	  0.1924	 14.0162	  14.016	  83.845
 1677	  0.1920	 14.0250	  14.025	  83.895
 1678	  0.1924	 14.0337	  14.034	  83.945
 1679	  0.1928	 14.0412	  14.041	  83.995
 1680	  0.1924	 14.0500	  14.050	  84.045
 1681	  0.1928	 14.0588	  14.059	  84.095
 1682	  0.1928	 14.0662	  14.066	  84.145
 1683	  0.1928	 14.0750	  14.075	  84.195
 1684	  0.1924	 14.0837	  14.084	  84.245
 1685	  0.1924	 14.0912	  14.091	  84.295
 1686	  0.1924	 14.1000	  14.100	  84.345
 1687	  0.1928	 14.1087	  14.109	  84.395
 1688	  0.1924	 14.1163	  14.116	  84.445
 1689	  0.1924	 14.1250	  14.125	  84.495
 1690	  0.1928	 14.1337	  14.134	  84.545
 1691	  0.1932	 14.1425	  14.142	  84.595
 1692	  0.1932	 14.1500	  14.150	  84.645
 1693	  0.1936	 14.1587	  14.159	  84.695
 1694	  0.1940	 14.1675	  14.167	  84.745
 1695	  0.1940	 14.1750	  14.175	  84.795
 1696	  0.1936	 14.1838	  14.184	  84.845
 1697	  0.1940	 14.1925	  14.193	  84.895
 1698	  0.1940	 14.2000	  14.200	  84.945
 1699	  0.1940	 14.2087	  14.209	  84.995
 1700	  0.1940	 14.2175	  14.217	  85.045
 1701	  0.1944	 14.2250	  14.225	  85.095
 1702	  0.1940	 14.2337	  14.234	  85.145
 1703	  0.1940	 14.2425	  14.242	  85.195
 1704	  0.1940	 14.2500	  14.250	  85.245
 1705	  0.1944	 14.2587	  14.259	  85.295
 1706	  0.1940	 14.2675	  14.267	  85.345
 1707	  0.1944	 14.2762	  14.276	  85.395
 1708	  0.1944	 14.2837	  14.284	  85.445
 1709	  0.1944	 14.2925	  14.292	  85.495
 1710	  0.1940	 14.3012	  14.301	  85.545
 1711	  0.1944	 14.3088	  14.309	  85.595
 1712	  0.1948	 14.3175	  14.318	  85.645
 1713	  0.1940	 14.3263	  14.326	  85.695
 1714	  0.1940	 14.3337	  14.334	  85.745
 1715	  0.1940	 14.3425	  14.342	  85.795
 1716	  0.1944	 14.3512	  14.351	  85.845
 1717	  0.1944	 14.3587	  14.359	  85.895
 1718	  0.1948	 14.3675	  14.367	  85.945
 1719	  0.1956	 14.3762	  14.376	  85.995
 1720	  0.1952	 14.3837	  14.384	  86.045
 1721	  0.1944	 14.3925	  14.392	  86.095
 1722	  0.1956	 14.4012	  14.401	  86.145
 1723	  0.1956	 14.4100	  14.410	  86.195
 1724	  0.1952	 14.4175	  14.417	  86.245
 1725	  0.1948	 14.4262	  14.426	  86.295
 1726	  0.1944	 14.4350	  14.435	  86.345
 1727	  0.1948	 14.4425	  14.443	  86.395
 1728	  0.1948	 14.4513	  14.451	  86.445
 1729	  0.1940	 14.4600	  14.460	  86.495
 1730	  0.1944	 14.4675	  14.467	  86.545
 1731	  0.1944	 14.4762	  14.476	  86.595
 1732	  0.1960	 14.4850	  14.485	  86.645
 1733	  0.1956	 14.4937	  14.494	  86.695
 1734	  0.1952	 14.5012	  14.501	  86.745
 1735	  0.1952	 14.5100	  14.510	  86.795
 1736	  0.1956	 14.5175	  14.517	  86.845
 1737	  0.1960	 14.5262	  14.526	  86.895
 1738	  0.1960	 14.5350	  14.535	  86.945
 1739	  0.1956	 14.5437	  14.544	  86.995
 1740	  0.1956	 14.5512	  14.551	  87.045
 1741	  0.1960	 14.5600	  14.560	  87.095
 1742	  0.1960	 14.5687	  14.569	  87.145
 1743	  0.1964	 14.5763	  14.576	  87.195
 1744	  0.1964	 14.5850	  14.585	  87.245
 1745	  0.1956	 14.5938	  14.594	  87.295
 1746	  0.1960	 14.6012	  14.601	  87.345
 1747	  0.1956	 14.6100	  14.610	  87.395
 1748	  0.1956	 14.6187	  14.619	  87.445
 1749	  0.1956	 14.6262	  14.626	  87.495
 1750	  0.1956	 14.6350	  14.635	  87.545
 1751	  0.1956	 14.6437	  14.644	  87.595
 1752	  0.1968	 14.6512	  14.651	  87.645
 1753	  0.1964	 14.6600	  14.660	  87.695
 1754	  0.1968	 14.6687	  14.669	  87.745
 1755	  0.1968	 14.6775	  14.677	  87.795
 1756	  0.1968	 14.6850	  14.685	  87.845
 1757	  0.1968	 14.6937	  14.694	  87.895
 1758	  0.1972	 14.7025	  14.702	  87.945
 1759	  0.1968	 14.7112	  14.711	  87.995
 1760	  0.1972	 14.7188	  14.719	  88.045
 1761	  0.1968	 14.7275	  14.727	  88.095
 1762	  0.1972	 14.7362	  14.736	  88.145
 1763	  0.1972	 14.7437	  14.744	  88.195
 1764	  0.1972	 14.7525	  14.752	  88.245
 1765	  0.1976	 14.7612	  14.761	  88.295
 1766	  0.1976	 14.7687	  14.769	  88.345
 1767	  0.1984	 14.7775	  14.777	  88.395
 1768	  0.1984	 14.7863	  14.786	  88.445
 1769	  0.1984	 14.7937	  14.794	  88.495
 1770	  0.1980	 14.8025	  14.802	  88.545
 1771	  0.1980	 14.8112	  14.811	  88.595
 1772	  0.1976	 14.8187	  14.819	  88.645
 1773	  0.1980	 14.8275	  14.827	  88.695
 1774	  0.1980	 14.8362	  14.836	  88.745
 1775	  0.1988	 14.8438	  14.844	  88.795
 1776	  0.1984	 14.8525	  14.852	  88.845
 1777	  0.1988	 14.8612	  14.861	  88.895
 1778	  0.1984	 14.8700	  14.870	  88.945
 1779	  0.1980	 14.8775	  14.877	  88.995
 1780	  0.1980	 14.8862	  14.886	  89.045
 1781	  0.1984	 14.8937	  14.894	  89.095
 1782	  0.1988	 14.9025	  14.902	  89.145
 1783	  0.1980	 14.9113	  14.911	  89.195
 1784	  0.1980	 14.9200	  14.920	  89.245
 1785	  0.1976	 14.9275	  14.927	  89.295
 1786	  0.1984	 14.9362	  14.936	  89.345
 1787	  0.1980	 14.9450	  14.945	  89.395
 1788	  0.1976	 14.9537	  14.954	  89.445
 1789	  0.1980	 14.9612	  14.961	  89.495
 1790	  0.1984	 14.9700	  14.970	  89.545
 1791	  0.1988	 14.9775	  14.977	  89.595
 1792	  0.1988	 14.9862	  14.986	  89.645
 1793	  0.1992	 14.9950	  14.995	  89.695
 1794	  0.1992	 15.0037	  15.004	  89.745
 1795	  0.1996	 15.0112	  15.011	  89.795
 1796	  0.1992	 15.0200	  15.020	  89.845
 1797	  0.1988	 15.0275	  15.027	  89.895
 1798	  0.1992	 15.0363	  15.036	  89.945
 1799	  0.1996	 15.0450	  15.045	  89.995
 1800	  0.2000	 15.0525	  15.052	  90.045
 1801	  0.1996	 15.0612	  15.061	  90.095
 1802	  0.1992	 15.0700	  15.070	  90.145
 1803	  0.2000	 15.0787	  15.079	  90.195
 1804	  0.1996	 15.0862	  15.086	  90.245
 1805	  0.2000	 15.0950	  15.095	  90.295
 1806	  0.2000	 15.1037	  15.104	  90.345
 1807	  0.2000	 15.1112	  15.111	  90.395
 1808	  0.1996	 15.1200	  15.120	  90.445
 1809	  0.1996	 15.1287	  15.129	  90.495
 1810	  0.1996	 15.1362	  15.136	  90.545
 1811	  0.2000	 15.1450	  15.145	  90.595
 1812	  0.1996	 15.1537	  15.154	  90.645
 1813	  0.1996	 15.1613	  15.161	  90.695
 1814	  0.2000	 15.1700	  15.170	  90.745
 1815	  0.2000	 15.1788	  15.179	  90.795
 1816	  0.2004	 15.1862	  15.186	  90.845
 1817	  0.2004	 15.1950	  15.195	  90.895
 1818	  0.2008	 15.2037	  15.204	  90.945
 1819	  0.2004	 15.2112	  15.211	  90.995
 1820	  0.2000	 15.2200	  15.220	  91.045
 1821	  0.2008	 15.2287	  15.229	  91.095
 1822	  0.2012	 15.2375	  15.237	  91.145
 1823	  0.2012	 15.2450	  15.245	  91.195
 1824	  0.2008	 15.2537	  15.254	  91.245
 1825	  0.2008	 15.2625	  15.262	  91.295
 1826	  0.2012	 15.2700	  15.270	  91.345
 1827	  0.2008	 15.2787	  15.279	  91.395
 1828	  0.2004	 15.2875	  15.287	  91.445
 1829	  0.2008	 15.2950	  15.295	  91.495
 1830	  0.2012	 15.3038	  15.304	  91.545
 1831	  0.2016	 15.3125	  15.312	  91.595
 1832	  0.2016	 15.3200	  15.320	  91.645
 1833	  0.2012	 15.3287	  15.329	  91.695
 1834	  0.2012	 15.3375	  15.337	  91.745
 1835	  0.2020	 15.3450	  15.345	  91.795
 1836	  0.2020	 15.3537	  15.354	  91.845
 1837	  0.2012	 15.3625	  15.362	  91.895
 1838	  0.2016	 15.3700	  15.370	  91.945
 1839	  0.2016	 15.3787	  15.379	  91.995
 1840	  0.2012	 15.3875	  15.387	  92.045
 1841	  0.2012	 15.3950	  15.395	  92.095
 1842	  0.2016	 15.4037	  15.404	  92.145
 1843	  0.2016	 15.4125	  15.412	  92.195
 1844	  0.2016	 15.4212	  15.421	  92.245
 1845	  0.2016	 15.4288	  15.429	  92.295
 1846	  0.2020	 15.4375	  15.438	  92.345
 1847	  0.2020	 15.4450	  15.445	  92.395
 1848	  0.2024	 15.4537	  15.454	  92.445
 1849	  0.2020	 15.4625	  15.462	  92.495
 1850	  0.2016	 15.4700	  15.470	  92.545
 1851	  0.2024	 15.4787	  15.479	  92.595
 1852	  0.2016	 15.4875	  15.487	  92.645
 1853	  0.2016	 15.4962	  15.496	  92.695
 1854	  0.2016	 15.5037	  15.504	  92.745
 1855	  0.2024	 15.5125	  15.512	  92.795
 1856	  0.2016	 15.5212	  15.521	  92.845
 1857	  0.2016	 15.5300	  15.530	  92.895
 1858	  0.2020	 15.5375	  15.537	  92.945
 1859	  0.2016	 15.5462	  15.546	  92.995
 1860	  0.2024	 15.5550	  15.555	  93.045
 1861	  0.2028	 15.5625	  15.562	  93.095
 1862	  0.2028	 15.5712	  15.571	  93.145
 1863	  0.2028	 15.5800	  15.580	  93.195
 1864	  0.2024	 15.5875	  15.587	  93.245
 1865	  0.2024	 15.5962	  15.596	  93.295
 1866	  0.2024	 15.6037	  15.604	  93.345
 1867	  0.2024	 15.6125	  15.612	  93.395
 1868	  0.2024	 15.6212	  15.621	  93.445
 1869	  0.2020	 15.6287	  15.629	  93.495
 1870	  0.2028	 15.6375	  15.637	  93.545
 1871	  0.2028	 15.6462	  15.646	  93.595
 1872	  0.2024	 15.6537	  15.654	  93.645
 1873	  0.2028	 15.6625	  15.662	  93.695
 1874	  0.2024	 15.6712	  15.671	  93.745
 1875	  0.2024	 15.6800	  15.680	  93.795
 1876	  0.2024	 15.6875	  15.688	  93.845
 1877	  0.2024	 15.6962	  15.696	  93.895
 1878	  0.2024	 15.7050	  15.705	  93.945
 1879	  0.2024	 15.7137	  15.714	  93.995
 1880	  0.2020	 15.7212	  15.721	  94.045
 1881	  0.2020	 15.7300	  15.730	  94.095
 1882	  0.2028	 15.7375	  15.737	  94.145
 1883	  0.2024	 15.7462	  15.746	  94.195
 1884	  0.2032	 15.7550	  15.755	  94.245
 1885	  0.2028	 15.7625	  15.762	  94.295
 1886	  0.2032	 15.7712	  15.771	  94.345
 1887	  0.2036	 15.7800	  15.780	  94.395
 1888	  0.2040	 15.7887	  15.789	  94.445
 1889	  0.2032	 15.7962	  15.796	  94.495
 1890	  0.2028	 15.8050	  15.805	  94.545
 1891	  0.2032	 15.8137	  15.814	  94.595
 1892	  0.2036	 15.8212	  15.821	  94.645
 1893	  0.2036	 15.8300	  15.830	  94.695
 1894	  0.2040	 15.8387	  15.839	  94.745
 1895	  0.2036	 15.8462	  15.846	  94.795
 1896	  0.2036	 15.8550	  15.855	  94.845
 1897	  0.2036	 15.8637	  15.864	  94.895
 1898	  0.2040	 15.8712	  15.871	  94.945
 1899	  0.2040	 15.8800	  15.880	  94.995
 1900	  0.2044	 15.8875	  15.887	  95.045
 1901	  0.2040	 15.8962	  15.896	  95.095
 1902	  0.2040	 15.9050	  15.905	  95.145
 1903	  0.2040	 15.9137	  15.914	  95.195
 1904	  0.2040	 15.9212	  15.921	  95.245
 1905	  0.2040	 15.9300	  15.930	  95.295
 1906	  0.2044	 15.9387	  15.939	  95.345
 1907	  0.2044	 15.9462	  15.946	  95.395
 1908	  0.2032	 15.9550	  15.955	  95.445
 1909	  0.2040	 15.9637	  15.964	  95.495
 1910	  0.2040	 15.9725	  15.972	  95.545
 1911	  0.2044	 15.9800	  15.980	  95.595
 1912	  0.2036	 15.9887	  15.989	  95.645
 1913	  0.2032	 15.9975	  15.997	  95.695
 1914	  0.2040	 16.0050	  16.005	  95.745
 1915	  0.2040	 16.0138	  16.014	  95.795
 1916	  0.2040	 16.0225	  16.022	  95.845
 1917	  0.2044	 16.0300	  16.030	  95.895
 1918	  0.2040	 16.0387	  16.039	  95.945
 1919	  0.2044	 16.0475	  16.047	  95.995
 1920	  0.2044	 16.0550	  16.055	  96.045
 1921	  0.2044	 16.0637	  16.064	  96.095
 1922	  0.2048	 16.0725	  16.073	  96.145
 1923	  0.2044	 16.0812	  16.081	  96.195
 1924	  0.2052	 16.0887	  16.089	  96.245
 1925	  0.2056	 16.0975	  16.097	  96.295
 1926	  0.2052	 16.1062	  16.106	  96.345
 1927	  0.2048	 16.1138	  16.114	  96.395
 1928	  0.2044	 16.1225	  16.122	  96.445
 1929	  0.2052	 16.1300	  16.130	  96.495
 1930	  0.2056	 16.1388	  16.139	  96.545
 1931	  0.2052	 16.1475	  16.147	  96.595
 1932	  0.2048	 16.1550	  16.155	  96.645
 1933	  0.2052	 16.1637	  16.164	  96.695
 1934	  0.2056	 16.1725	  16.172	  96.745
 1935	  0.2056	 16.1800	  16.180	  96.795
 1936	  0.2060	 16.1887	  16.189	  96.845
 1937	  0.2056	 16.1975	  16.198	  96.895
 1938	  0.2060	 16.2062	  16.206	  96.945
 1939	  0.2056	 16.2137	  16.214	  96.995
 1940	  0.2060	 16.2225	  16.222	  97.045
 1941	  0.2056	 16.2312	  16.231	  97.095
 1942	  0.2056	 16.2388	  16.239	  97.145
 1943	  0.2056	 16.2475	  16.247	  97.195
 1944	  0.2052	 16.2563	  16.256	  97.245
 1945	  0.2048	 16.2638	  16.264	  97.295
 1946	  0.2064	 16.2725	  16.272	  97.345
 1947	  0.2064	 16.2812	  16.281	  97.395
 1948	  0.2064	 16.2887	  16.289	  97.445
 1949	  0.2064	 16.2975	  16.297	  97.495
 1950	  0.2064	 16.3062	  16.306	  97.545
 1951	  0.2060	 16.3137	  16.314	  97.595
 1952	  0.2064	 16.3225	  16.323	  97.645
 1953	  0.2064	 16.3312	  16.331	  97.695
 1954	  0.2064	 16.3387	  16.339	  97.745
 1955	  0.2064	 16.3475	  16.347	  97.795
 1956	  0.2064	 16.3562	  16.356	  97.845
 1957	  0.2064	 16.3638	  16.364	  97.895
 1958	  0.2068	 16.3725	  16.372	  97.945
 1959	  0.2068	 16.3813	  16.381	  97.995
 1960	  0.2064	 16.3900	  16.390	  98.045
 1961	  0.2068	 16.3975	  16.397	  98.095
 1962	  0.2072	 16.4062	  16.406	  98.145
 1963	  0.2064	 16.4150	  16.415	  98.195
 1964	  0.2072	 16.4225	  16.422	  98.245
 1965	  0.2072	 16.4312	  16.431	  98.295
 1966	  0.2068	 16.4400	  16.440	  98.345
 1967	  0.2068	 16.4475	  16.448	  98.395
 1968	  0.2072	 16.4562	  16.456	  98.445
 1969	  0.2064	 16.4650	  16.465	  98.495
 1970	  0.2068	 16.4725	  16.472	  98.545
 1971	  0.2072	 16.4812	  16.481	  98.595
 1972	  0.2072	 16.4900	  16.490	  98.645
 1973	  0.2076	 16.4987	  16.499	  98.695
 1974	  0.2072	 16.5063	  16.506	  98.745
 1975	  0.2076	 16.5150	  16.515	  98.795
 1976	  0.2080	 16.5238	  16.524	  98.845
 1977	  0.2076	 16.5312	  16.531	  98.895
 1978	  0.2076	 16.5400	  16.540	  98.945
 1979	  0.2080	 16.5487	  16.549	  98.995
 1980	  0.2084	 16.5562	  16.556	  99.045
 1981	  0.2080	 16.5650	  16.565	  99.095
 1982	  0.2084	 16.5737	  16.574	  99.145
 1983	  0.2084	 16.5825	  16.583	  99.195
 1984	  0.2080	 16.5900	  16.590	  99.245
 1985	  0.2080	 16.5987	  16.599	  99.295
 1986	  0.2080	 16.6062	  16.606	  99.345
 1987	  0.2084	 16.6150	  16.615	  99.395
 1988	  0.2088	 16.6237	  16.624	  99.445
 1989	  0.2088	 16.6325	  16.632	  99.495
 1990	  0.2080	 16.6400	  16.640	  99.545
 1991	  0.2080	 16.6488	  16.649	  99.595
 1992	  0.2080	 16.6575	  16.657	  99.645
 1993	  0.2088	 16.6650	  16.665	  99.695
 1994	  0.2080	 16.6737	  16.674	  99.745
 1995	  0.2084	 16.6825	  16.682	  99.795
 1996	  0.2092	 16.6900	  16.690	  99.845
 1997	  0.2092	 16.6987	  16.699	  99.895
 1998	  0.2088	 16.7075	  16.708	  99.945
 1999	  0.2088	 16.7150	  16.715	  99.995
 2000	  0.2088	 16.7237	  16.724	 100.045
 2001	  0.2088	 16.7325	  16.733	 100.095
 2002	  0.2092	 16.7400	  16.740	 100.145
 2003	  0.2092	 16.7487	  16.749	 100.195
 2004	  0.2092	 16.7575	  16.757	 100.245
 2005	  0.2092	 16.7662	  16.766	 100.295
 2006	  0.2088	 16.7738	  16.774	 100.345
 2007	  0.2100	 16.7825	  16.782	 100.395
 2008	  0.2096	 16.7913	  16.791	 100.445
 2009	  0.2100	 16.7987	  16.799	 100.495
 2010	  0.2104	 16.8075	  16.807	 100.545
 2011	  0.2100	 16.8162	  16.816	 100.595
 2012	  0.2096	 16.8237	  16.824	 100.645
 2013	  0.2092	 16.8325	  16.833	 100.695
 2014	  0.2096	 16.8412	  16.841	 100.745
 2015	  0.2096	 16.8500	  16.850	 100.795
 2016	  0.2100	 16.8575	  16.858	 100.845
 2017	  0.2104	 16.8662	  16.866	 100.895
 2018	  0.2104	 16.8750	  16.875	 100.945
 2019	  0.2108	 16.8825	  16.882	 100.995
 2020	  0.2100	 16.8912	  16.891	 101.045
 2021	  0.2104	 16.9000	  16.900	 101.095
 2022	  0.2108	 16.9075	  16.907	 101.145
 2023	  0.2104	 16.9163	  16.916	 101.195
 2024	  0.2108	 16.9250	  16.925	 101.245
 2025	  0.2104	 16.9325	  16.932	 101.295
 2026	  0.2100	 16.9412	  16.941	 101.345
 2027	  0.2100	 16.9500	  16.950	 101.395
 2028	  0.2104	 16.9587	  16.959	 101.445
 2029	  0.2104	 16.9662	  16.966	 101.495
 2030	  0.2104	 16.9750	  16.975	 101.545
 2031	  0.2104	 16.9825	  16.983	 101.595
 2032	  0.2104	 16.9912	  16.991	 101.645
 2033	  0.2108	 17.0000	  17.000	 101.695
 2034	  0.2112	 17.0087	  17.009	 101.745
 2035	  0.2100	 17.0162	  17.016	 101.795
 2036	  0.2108	 17.0250	  17.025	 101.845
 2037	  0.2108	 17.0338	  17.034	 101.895
 2038	  0.2104	 17.0413	  17.041	 101.945
 2039	  0.2108	 17.0500	  17.050	 101.995
 2040	  0.2104	 17.0588	  17.059	 102.045
 2041	  0.2100	 17.0675	  17.067	 102.095
 2042	  0.2104	 17.0750	  17.075	 102.145
 2043	  0.2104	 17.0837	  17.084	 102.195
 2044	  0.2104	 17.0925	  17.092	 102.245
 2045	  0.2108	 17.1000	  17.100	 102.295
 2046	  0.2108	 17.1087	  17.109	 102.345
 2047	  0.2112	 17.1175	  17.118	 102.395
 2048	  0.2112	 17.1250	  17.125	 102.445
 2049	  0.2116	 17.1337	  17.134	 102.495
 2050	  0.2116	 17.1425	  17.142	 102.545
 2051	  0.2112	 17.1500	  17.150	 102.595
 2052	  0.2112	 17.1588	  17.159	 102.645
 2053	  0.2116	 17.1675	  17.167	 102.695
 2054	  0.2116	 17.1750	  17.175	 102.745
 2055	  0.2108	 17.1838	  17.184	 102.795
 2056	  0.2108	 17.1925	  17.192	 102.845
 2057	  0.2108	 17.2013	  17.201	 102.895
 2058	  0.2112	 17.2087	  17.209	 102.945
 2059	  0.2108	 17.2175	  17.217	 102.995
 2060	  0.2116	 17.2262	  17.226	 103.045
 2061	  0.2116	 17.2337	  17.234	 103.095
 2062	  0.2112	 17.2425	  17.243	 103.145
 2063	  0.2112	 17.2512	  17.251	 103.195
 2064	  0.2116	 17.2587	  17.259	 103.245
 2065	  0.2116	 17.2675	  17.267	 103.295
 2066	  0.2120	 17.2762	  17.276	 103.345
 2067	  0.2116	 17.2838	  17.284	 103.395
 2068	  0.2116	 17.2925	  17.292	 103.445
 2069	  0.2116	 17.3013	  17.301	 103.495
 2070	  0.2120	 17.3100	  17.310	 103.545
 2071	  0.2116	 17.3175	  17.317	 103.595
 2072	  0.2112	 17.3263	  17.326	 103.645
 2073	  0.2112	 17.3350	  17.335	 103.695
 2074	  0.2116	 17.3425	  17.342	 103.745
 2075	  0.2120	 17.3500	  17.350	 103.795
 2076	  0.2120	 17.3587	  17.359	 103.845
 2077	  0.2120	 17.3675	  17.368	 103.895
 2078	  0.2124	 17.3750	  17.375	 103.945
 2079	  0.2124	 17.3837	  17.384	 103.995
 2080	  0.2124	 17.3925	  17.392	 104.045
 2081	  0.2124	 17.4000	  17.400	 104.095
 2082	  0.2128	 17.4088	  17.409	 104.145
 2083	  0.2120	 17.4175	  17.417	 104.195
 2084	  0.2116	 17.4250	  17.425	 104.245
 2085	  0.2120	 17.4338	  17.434	 104.295
 2086	  0.2124	 17.4425	  17.442	 104.345
 2087	  0.2124	 17.4500	  17.450	 104.395
 2088	  0.2124	 17.4587	  17.459	 104.445
 2089	  0.2128	 17.4675	  17.467	 104.495
 2090	  0.2124	 17.4762	  17.476	 104.545
 2091	  0.2120	 17.4837	  17.484	 104.595
 2092	  0.2124	 17.4925	  17.493	 104.645
 2093	  0.2124	 17.5012	  17.501	 104.695
 2094	  0.2128	 17.5100	  17.510	 104.745
 2095	  0.2132	 17.5175	  17.517	 104.795
 2096	  0.2132	 17.5262	  17.526	 104.845
 2097	  0.2132	 17.5350	  17.535	 104.895
 2098	  0.2136	 17.5425	  17.542	 104.945
 2099	  0.2132	 17.5513	  17.551	 104.995
 2100	  0.2136	 17.5600	  17.560	 105.045
 2101	  0.2144	 17.5675	  17.567	 105.095
 2102	  0.2140	 17.5763	  17.576	 105.145
 2103	  0.2140	 17.5850	  17.585	 105.195
 2104	  0.2140	 17.5938	  17.594	 105.245
 2105	  0.2140	 17.6012	  17.601	 105.295
 2106	  0.2140	 17.6100	  17.610	 105.345
 2107	  0.2140	 17.6187	  17.619	 105.395
 2108	  0.2140	 17.6275	  17.628	 105.445
 2109	  0.2140	 17.6350	  17.635	 105.495
 2110	  0.2144	 17.6437	  17.644	 105.545
 2111	  0.2140	 17.6525	  17.653	 105.595
 2112	  0.2144	 17.6600	  17.660	 105.645
 2113	  0.2136	 17.6687	  17.669	 105.695
 2114	  0.2140	 17.6775	  17.677	 105.745
 2115	  0.2144	 17.6850	  17.685	 105.795
 2116	  0.2136	 17.6938	  17.694	 105.845
 2117	  0.2136	 17.7025	  17.702	 105.895
 2118	  0.2136	 17.7100	  17.710	 105.945
 2119	  0.2144	 17.7188	  17.719	 105.995
 2120	  0.2140	 17.7275	  17.727	 106.045
 2121	  0.2144	 17.7350	  17.735	 106.095
 2122	  0.2144	 17.7437	  17.744	 106.145
 2123	  0.2144	 17.7525	  17.753	 106.195
 2124	  0.2144	 17.7612	  17.761	 106.245
 2125	  0.2144	 17.7687	  17.769	 106.295
 2126	  0.2152	 17.7775	  17.778	 106.345
 2127	  0.2148	 17.7862	  17.786	 106.395
 2128	  0.2148	 17.7950	  17.795	 106.445
 2129	  0.2148	 17.8025	  17.802	 106.495
 2130	  0.2152	 17.8112	  17.811	 106.545
 2131	  0.2152	 17.8200	  17.820	 106.595
 2132	  0.2152	 17.8275	  17.827	 106.645
 2133	  0.2152	 17.8363	  17.836	 106.695
 2134	  0.2148	 17.8450	  17.845	 106.745
 2135	  0.2156	 17.8525	  17.852	 106.795
 2136	  0.2152	 17.8612	  17.861	 106.845
 2137	  0.2156	 17.8700	  17.870	 106.895
 2138	  0.2156	 17.8787	  17.879	 106.945
 2139	  0.2152	 17.8862	  17.886	 106.995
 2140	  0.2152	 17.8950	  17.895	 107.045
 2141	  0.2156	 17.9037	  17.904	 107.095
 2142	  0.2148	 17.9112	  17.911	 107.145
 2143	  0.2156	 17.9200	  17.920	 107.195
 2144	  0.2152	 17.9287	  17.929	 107.245
 2145	  0.2152	 17.9362	  17.936	 107.295
 2146	  0.2156	 17.9450	  17.945	 107.345
 2147	  0.2156	 17.9537	  17.954	 107.395
 2148	  0.2160	 17.9613	  17.961	 107.445
 2149	  0.2160	 17.9700	  17.970	 107.495
 2150	  0.2156	 17.9788	  17.979	 107.545
 2151	  0.2156	 17.9862	  17.986	 107.595
 2152	  0.2156	 17.9950	  17.995	 107.645
 2153	  0.2156	 18.0037	  18.004	 107.695
 2154	  0.2156	 18.0125	  18.012	 107.745
 2155	  0.2160	 18.0200	  18.020	 107.795
 2156	  0.2156	 18.0287	  18.029	 107.845
 2157	  0.2156	 18.0375	  18.038	 107.895
 2158	  0.2160	 18.0450	  18.045	 107.945
 2159	  0.2160	 18.0537	  18.054	 107.995
 2160	  0.2164	 18.0625	  18.062	 108.045
 2161	  0.2164	 18.0700	  18.070	 108.095
 2162	  0.2160	 18.0787	  18.079	 108.145
 2163	  0.2160	 18.0875	  18.087	 108.195
 2164	  0.2168	 18.0963	  18.096	 108.245
 2165	  0.2164	 18.1038	  18.104	 108.295
 2166	  0.2176	 18.1125	  18.112	 108.345
 2167	  0.2172	 18.1213	  18.121	 108.395
 2168	  0.2172	 18.1287	  18.129	 108.445
 2169	  0.2164	 18.1375	  18.137	 108.495
 2170	  0.2172	 18.1462	  18.146	 108.545
 2171	  0.2164	 18.1550	  18.155	 108.595
 2172	  0.2168	 18.1625	  18.163	 108.645
 2173	  0.2164	 18.1712	  18.171	 108.695
 2174	  0.2168	 18.1800	  18.180	 108.745
 2175	  0.2172	 18.1875	  18.188	 108.795
 2176	  0.2168	 18.1962	  18.196	 108.845
 2177	  0.2168	 18.2050	  18.205	 108.895
 2178	  0.2168	 18.2125	  18.212	 108.945
 2179	  0.2164	 18.2213	  18.221	 108.995
 2180	  0.2164	 18.2300	  18.230	 109.045
 2181	  0.2164	 18.2375	  18.237	 109.095
 2182	  0.2168	 18.2463	  18.246	 109.145
 2183	  0.2172	 18.2550	  18.255	 109.195
 2184	  0.2172	 18.2625	  18.262	 109.245
 2185	  0.2172	 18.2712	  18.271	 109.295
 2186	  0.2172	 18.2800	  18.280	 109.345
 2187	  0.2164	 18.2875	  18.288	 109.395
 2188	  0.2168	 18.2962	  18.296	 109.445
 2189	  0.2176	 18.3050	  18.305	 109.495
 2190	  0.2176	 18.3137	  18.314	 109.545
 2191	  0.2172	 18.3212	  18.321	 109.595
 2192	  0.2176	 18.3300	  18.330	 109.645
 2193	  0.2180	 18.3387	  18.339	 109.695
 2194	  0.2184	 18.3475	  18.347	 109.745
 2195	  0.2180	 18.3550	  18.355	 109.795
 2196	  0.2180	 18.3638	  18.364	 109.845
 2197	  0.2180	 18.3725	  18.372	 109.895
 2198	  0.2180	 18.3800	  18.380	 109.945
 2199	  0.2176	 18.3888	  18.389	 109.995
 2200	  0.2180	 18.3975	  18.397	 110.045
 2201	  0.2180	 18.4050	  18.405	 110.095
 2202	  0.2180	 18.4137	  18.414	 110.145
 2203	  0.2184	 18.4225	  18.422	 110.195
 2204	  0.2184	 18.4300	  18.430	 110.245
 2205	  0.2188	 18.4387	  18.439	 110.295
 2206	  0.2188	 18.4475	  18.448	 110.345
 2207	  0.2184	 18.4550	  18.455	 110.395
 2208	  0.2184	 18.4637	  18.464	 110.445
 2209	  0.2188	 18.4725	  18.472	 110.495
 2210	  0.2184	 18.4800	  18.480	 110.545
 2211	  0.2184	 18.4888	  18.489	 110.595
 2212	  0.2188	 18.4975	  18.497	 110.645
 2213	  0.2192	 18.5050	  18.505	 110.695
 2214	  0.2188	 18.5138	  18.514	 110.745
 2215	  0.2188	 18.5225	  18.522	 110.795
 2216	  0.2192	 18.5300	  18.530	 110.845
 2217	  0.2192	 18.5387	  18.539	 110.895
 2218	  0.2196	 18.5475	  18.547	 110.945
 2219	  0.2196	 18.5562	  18.556	 110.995
 2220	  0.2196	 18.5637	  18.564	 111.045
 2221	  0.2192	 18.5725	  18.573	 111.095
 2222	  0.2188	 18.5812	  18.581	 111.145
 2223	  0.2188	 18.5887	  18.589	 111.195
 2224	  0.2196	 18.5975	  18.597	 111.245
 2225	  0.2196	 18.6062	  18.606	 111.295
 2226	  0.2192	 18.6138	  18.614	 111.345
 2227	  0.2196	 18.6225	  18.622	 111.395
 2228	  0.2200	 18.6313	  18.631	 111.445
 2229	  0.2200	 18.6388	  18.639	 111.495
 2230	  0.2204	 18.6475	  18.647	 111.545
 2231	  0.2196	 18.6562	  18.656	 111.595
 2232	  0.2192	 18.6637	  18.664	 111.645
 2233	  0.2192	 18.6725	  18.672	 111.695
 2234	  0.2196	 18.6812	  18.681	 111.745
 2235	  0.2196	 18.6900	  18.690	 111.795
 2236	  0.2200	 18.6975	  18.698	 111.845
 2237	  0.2200	 18.7062	  18.706	 111.895
 2238	  0.2200	 18.7150	  18.715	 111.945
 2239	  0.2196	 18.7225	  18.722	 111.995
 2240	  0.2200	 18.7312	  18.731	 112.045
 2241	  0.2200	 18.7400	  18.740	 112.095
 2242	  0.2196	 18.7475	  18.747	 112.145
 2243	  0.2192	 18.7563	  18.756	 112.195
 2244	  0.2192	 18.7650	  18.765	 112.245
 2245	  0.2200	 18.7725	  18.772	 112.295
 2246	  0.2204	 18.7812	  18.781	 112.345
 2247	  0.2204	 18.7887	  18.789	 112.395
 2248	  0.2200	 18.7975	  18.797	 112.445
 2249	  0.2200	 18.8062	  18.806	 112.495
 2250	  0.2196	 18.8150	  18.815	 112.545
 2251	  0.2204	 18.8225	  18.823	 112.595
 2252	  0.2200	 18.8312	  18.831	 112.645
 2253	  0.2200	 18.8400	  18.840	 112.695
 2254	  0.2196	 18.8475	  18.847	 112.745
 2255	  0.2204	 18.8562	  18.856	 112.795
 2256	  0.2208	 18.8650	  18.865	 112.845
 2257	  0.2200	 18.8725	  18.872	 112.895
 2258	  0.2204	 18.8813	  18.881	 112.945
 2259	  0.2204	 18.8900	  18.890	 112.995
 2260	  0.2208	 18.8988	  18.899	 113.045
 2261	  0.2200	 18.9062	  18.906	 113.095
 2262	  0.2204	 18.9150	  18.915	 113.145
 2263	  0.2200	 18.9225	  18.922	 113.195
 2264	  0.2208	 18.9312	  18.931	 113.245
 2265	  0.2208	 18.9400	  18.940	 113.295
 2266	  0.2220	 18.9475	  18.948	 113.345
 2267	  0.2216	 18.9562	  18.956	 113.395
 2268	  0.2208	 18.9650	  18.965	 113.445
 2269	  0.2208	 18.9725	  18.972	 113.495
 2270	  0.2216	 18.9812	  18.981	 113.545
 2271	  0.2216	 18.9900	  18.990	 113.595
 2272	  0.2212	 18.9975	  18.997	 113.645
 2273	  0.2216	 19.0063	  19.006	 113.695
 2274	  0.2212	 19.0150	  19.015	 113.745
 2275	  0.2216	 19.0225	  19.022	 113.795
 2276	  0.2216	 19.0312	  19.031	 113.845
 2277	  0.2212	 19.0400	  19.040	 113.895
 2278	  0.2216	 19.0475	  19.047	 113.945
 2279	  0.2216	 19.0562	  19.056	 113.995
 2280	  0.2216	 19.0650	  19.065	 114.045
 2281	  0.2220	 19.0725	  19.073	 114.095
 2282	  0.2220	 19.0812	  19.081	 114.145
 2283	  0.2220	 19.0900	  19.090	 114.195
 2284	  0.2224	 19.0975	  19.097	 114.245
 2285	  0.2224	 19.1062	  19.106	 114.295
 2286	  0.2216	 19.1150	  19.115	 114.345
 2287	  0.2220	 19.1225	  19.122	 114.395
 2288	  0.2216	 19.1313	  19.131	 114.445
 2289	  0.2220	 19.1400	  19.140	 114.495
 2290	  0.2220	 19.1475	  19.147	 114.545
 2291	  0.2220	 19.1562	  19.156	 114.595
 2292	  0.2216	 19.1650	  19.165	 114.645
 2293	  0.2224	 19.1725	  19.172	 114.695
 2294	  0.2224	 19.1812	  19.181	 114.745
 2295	  0.2220	 19.1900	  19.190	 114.795
 2296	  0.2220	 19.1975	  19.198	 114.845
 2297	  0.2224	 19.2062	  19.206	 114.895
 2298	  0.2220	 19.2150	  19.215	 114.945
 2299	  0.2224	 19.2225	  19.222	 114.995
 2300	  0.2224	 19.2312	  19.231	 115.045
 2301	  0.2224	 19.2400	  19.240	 115.095
 2302	  0.2224	 19.2475	  19.247	 115.145
 2303	  0.2224	 19.2563	  19.256	 115.195
 2304	  0.2220	 19.2650	  19.265	 115.245
 2305	  0.2220	 19.2725	  19.272	 115.295
 2306	  0.2228	 19.2812	  19.281	 115.345
 2307	  0.2224	 19.2900	  19.290	 115.395
 2308	  0.2220	 19.2987	  19.299	 115.445
 2309	  0.2228	 19.3062	  19.306	 115.495
 2310	  0.2224	 19.3150	  19.315	 115.545
 2311	  0.2220	 19.3237	  19.324	 115.595
 2312	  0.2224	 19.3312	  19.331	 115.645
 2313	  0.2224	 19.3400	  19.340	 115.695
 2314	  0.2224	 19.3487	  19.349	 115.745
 2315	  0.2228	 19.3562	  19.356	 115.795
 2316	  0.2228	 19.3650	  19.365	 115.845
 2317	  0.2228	 19.3737	  19.374	 115.895
 2318	  0.2232	 19.3825	  19.382	 115.945
 2319	  0.2224	 19.3900	  19.390	 115.995
 2320	  0.2228	 19.3988	  19.399	 116.045
 2321	  0.2228	 19.4075	  19.407	 116.095
 2322	  0.2228	 19.4150	  19.415	 116.145
 2323	  0.2232	 19.4237	  19.424	 116.195
 2324	  0.2236	 19.4325	  19.432	 116.245
 2325	  0.2236	 19.4400	  19.440	 116.295
 2326	  0.2232	 19.4475	  19.448	 116.345
 2327	  0.2236	 19.4562	  19.456	 116.395
 2328	  0.2236	 19.4637	  19.464	 116.445
 2329	  0.2240	 19.4725	  19.472	 116.495
 2330	  0.2240	 19.4812	  19.481	 116.545
 2331	  0.2236	 19.4888	  19.489	 116.595
 2332	  0.2240	 19.4975	  19.497	 116.645
 2333	  0.2240	 19.5063	  19.506	 116.695
 2334	  0.2244	 19.5150	  19.515	 116.745
 2335	  0.2240	 19.5225	  19.522	 116.795
 2336	  0.2248	 19.5312	  19.531	 116.845
 2337	  0.2244	 19.5400	  19.540	 116.895
 2338	  0.2240	 19.5475	  19.547	 116.945
 2339	  0.2244	 19.5562	  19.556	 116.995
 2340	  0.2248	 19.5650	  19.565	 117.045
 2341	  0.2248	 19.5725	  19.573	 117.095
 2342	  0.2248	 19.5812	  19.581	 117.145
 2343	  0.2244	 19.5900	  19.590	 117.195
 2344	  0.2240	 19.5975	  19.597	 117.245
 2345	  0.2244	 19.6062	  19.606	 117.295
 2346	  0.2248	 19.6150	  19.615	 117.345
 2347	  0.2244	 19.6225	  19.622	 117.395
 2348	  0.2248	 19.6313	  19.631	 117.445
 2349	  0.2248	 19.6400	  19.640	 117.495
 2350	  0.2248	 19.6488	  19.649	 117.545
 2351	  0.2248	 19.6562	  19.656	 117.595
 2352	  0.2252	 19.6650	  19.665	 117.645
 2353	  0.2248	 19.6737	  19.674	 117.695
 2354	  0.2248	 19.6812	  19.681	 117.745
 2355	  0.2248	 19.6900	  19.690	 117.795
 2356	  0.2248	 19.6987	  19.699	 117.845
 2357	  0.2248	 19.7075	  19.708	 117.895
 2358	  0.2248	 19.7150	  19.715	 117.945
 2359	  0.2244	 19.7237	  19.724	 117.995
 2360	  0.2244	 19.7325	  19.733	 118.045
 2361	  0.2244	 19.7400	  19.740	 118.095
 2362	  0.2248	 19.7487	  19.749	 118.145
 2363	  0.2248	 19.7575	  19.757	 118.195
 2364	  0.2248	 19.7650	  19.765	 118.245
 2365	  0.2244	 19.7738	  19.774	 118.295
 2366	  0.2248	 19.7825	  19.782	 118.345
 2367	  0.2252	 19.7900	  19.790	 118.395
 2368	  0.2256	 19.7987	  19.799	 118.445
 2369	  0.2256	 19.8075	  19.807	 118.495
 2370	  0.2252	 19.8162	  19.816	 118.545
 2371	  0.2252	 19.8237	  19.824	 118.595
 2372	  0.2256	 19.8325	  19.833	 118.645
 2373	  0.2248	 19.8412	  19.841	 118.695
 2374	  0.2252	 19.8487	  19.849	 118.745
 2375	  0.2252	 19.8575	  19.858	 118.795
 2376	  0.2252	 19.8662	  19.866	 118.845
 2377	  0.2256	 19.8737	  19.874	 118.895
 2378	  0.2256	 19.8825	  19.882	 118.945
 2379	  0.2264	 19.8912	  19.891	 118.995
 2380	  0.2256	 19.8988	  19.899	 119.045
 2381	  0.2260	 19.9075	  19.907	 119.095
 2382	  0.2256	 19.9163	  19.916	 119.145
 2383	  0.2268	 19.9237	  19.924	 119.195
 2384	  0.2268	 19.9325	  19.932	 119.245
 2385	  0.2268	 19.9412	  19.941	 119.295
 2386	  0.2264	 19.9487	  19.949	 119.345
 2387	  0.2264	 19.9575	  19.958	 119.395
 2388	  0.2264	 19.9662	  19.966	 119.445
 2389	  0.2272	 19.9750	  19.975	 119.495
 2390	  0.2264	 19.9825	  19.983	 119.545
 2391	  0.2264	 19.9912	  19.991	 119.595
 2392	  0.2268	 20.0000	  20.000	 119.645
 2393	  0.2264	 20.0075	  20.007	 119.695
 2394	  0.2264	 20.0162	  20.016	 119.745
 2395	  0.2264	 20.0238	  20.024	 119.795
 2396	  0.2260	 20.0325	  20.032	 119.845
 2397	  0.2264	 20.0413	  20.041	 119.895
 2398	  0.2260	 20.0487	  20.049	 119.945
 2399	  0.2256	 20.0575	  20.057	 119.995
 2400	  0.2264	 20.0662	  20.066	 120.045
 2401	  0.2260	 20.0737	  20.074	 120.095
 2402	  0.2264	 20.0825	  20.083	 120.145
 2403	  0.2260	 20.0912	  20.091	 120.195
 2404	  0.2264	 20.0987	  20.099	 120.245
 2405	  0.2264	 20.1075	  20.108	 120.295
 2406	  0.2264	 20.1162	  20.116	 120.345
 2407	  0.2268	 20.1237	  20.124	 120.395
 2408	  0.2272	 20.1325	  20.132	 120.445
 2409	  0.2268	 20.1412	  20.141	 120.495
 2410	  0.2264	 20.1488	  20.149	 120.545
 2411	  0.2272	 20.1575	  20.157	 120.595
 2412	  0.2272	 20.1663	  20.166	 120.645
 2413	  0.2272	 20.1737	  20.174	 120.695
 2414	  0.2268	 20.1825	  20.182	 120.745
 2415	  0.2268	 20.1912	  20.191	 120.795
 2416	  0.2280	 20.1987	  20.199	 120.845
 2417	  0.2276	 20.2075	  20.208	 120.895
 2418	  0.2276	 20.2162	  20.216	 120.945
 2419	  0.2272	 20.2237	  20.224	 120.995
 2420	  0.2276	 20.2325	  20.233	 121.045
 2421	  0.2264	 20.2412	  20.241	 121.095
 2422	  0.2264	 20.2487	  20.249	 121.145
 2423	  0.2280	 20.2575	  20.257	 121.195
 2424	  0.2272	 20.2662	  20.266	 121.245
 2425	  0.2276	 20.2738	  20.274	 121.295
 2426	  0.2276	 20.2825	  20.282	 121.345
 2427	  0.2272	 20.2913	  20.291	 121.395
 2428	  0.2276	 20.2987	  20.299	 121.445
 2429	  0.2280	 20.3075	  20.307	 121.495
 2430	  0.2280	 20.3162	  20.316	 121.545
 2431	  0.2280	 20.3237	  20.324	 121.595
 2432	  0.2284	 20.3325	  20.333	 121.645
 2433	  0.2284	 20.3412	  20.341	 121.695
 2434	  0.2276	 20.3487	  20.349	 121.745
 2435	  0.2280	 20.3575	  20.358	 121.795
 2436	  0.2280	 20.3650	  20.365	 121.845
 2437	  0.2284	 20.3737	  20.374	 121.895
 2438	  0.2280	 20.3825	  20.382	 121.945
 2439	  0.2284	 20.3900	  20.390	 121.995
 2440	  0.2280	 20.3988	  20.399	 122.045
 2441	  0.2280	 20.4075	  20.407	 122.095
 2442	  0.2284	 20.4150	  20.415	 122.145
 2443	  0.2284	 20.4237	  20.424	 122.195
 2444	  0.2288	 20.4325	  20.432	 122.245
 2445	  0.2292	 20.4400	  20.440	 122.295
 2446	  0.2296	 20.4487	  20.449	 122.345
 2447	  0.2292	 20.4575	  20.458	 122.395
 2448	  0.2288	 20.4650	  20.465	 122.445
 2449	  0.2288	 20.4737	  20.474	 122.495
 2450	  0.2292	 20.4825	  20.483	 122.545
 2451	  0.2284	 20.4900	  20.490	 122.595
 2452	  0.2288	 20.4987	  20.499	 122.645
 2453	  0.2288	 20.5075	  20.507	 122.695
 2454	  0.2292	 20.5162	  20.516	 122.745
 2455	  0.2288	 20.5238	  20.524	 122.795
 2456	  0.2288	 20.5325	  20.532	 122.845
 2457	  0.2292	 20.5400	  20.540	 122.895
 2458	  0.2288	 20.5487	  20.549	 122.945
 2459	  0.2292	 20.5575	  20.557	 122.995
 2460	  0.2288	 20.5650	  20.565	 123.045
 2461	  0.2288	 20.5737	  20.574	 123.095
 2462	  0.2292	 20.5825	  20.583	 123.145
 2463	  0.2292	 20.5900	  20.590	 123.195
 2464	  0.2292	 20.5987	  20.599	 123.245
 2465	  0.2288	 20.6075	  20.608	 123.295
 2466	  0.2292	 20.6150	  20.615	 123.345
 2467	  0.2288	 20.6237	  20.624	 123.395
 2468	  0.2292	 20.6325	  20.632	 123.445
 2469	  0.2292	 20.6412	  20.641	 123.495
 2470	  0.2300	 20.6488	  20.649	 123.545
 2471	  0.2300	 20.6575	  20.657	 123.595
 2472	  0.2292	 20.6663	  20.666	 123.645
 2473	  0.2300	 20.6737	  20.674	 123.695
 2474	  0.2296	 20.6825	  20.682	 123.745
 2475	  0.2300	 20.6912	  20.691	 123.795
 2476	  0.2300	 20.6987	  20.699	 123.845
 2477	  0.2296	 20.7075	  20.708	 123.895
 2478	  0.2292	 20.7162	  20.716	 123.945
 2479	  0.2296	 20.7237	  20.724	 123.995
 2480	  0.2296	 20.7325	  20.733	 124.045
 2481	  0.2292	 20.7412	  20.741	 124.095
 2482	  0.2300	 20.7487	  20.749	 124.145
 2483	  0.2296	 20.7575	  20.757	 124.195
 2484	  0.2300	 20.7662	  20.766	 124.245
 2485	  0.2300	 20.7738	  20.774	 124.295
 2486	  0.2296	 20.7825	  20.782	 124.345
 2487	  0.2304	 20.7913	  20.791	 124.395
 2488	  0.2296	 20.7987	  20.799	 124.445
 2489	  0.2296	 20.8075	  20.807	 124.495
 2490	  0.2300	 20.8162	  20.816	 124.545
 2491	  0.2304	 20.8237	  20.824	 124.595
 2492	  0.2304	 20.8325	  20.833	 124.645
 2493	  0.2308	 20.8412	  20.841	 124.695
 2494	  0.2304	 20.8487	  20.849	 124.745
 2495	  0.2300	 20.8575	  20.858	 124.795
 2496	  0.2300	 20.8662	  20.866	 124.845
 2497	  0.2300	 20.8737	  20.874	 124.895
 2498	  0.2300	 20.8825	  20.882	 124.945
 2499	  0.2300	 20.8912	  20.891	 124.995
 2500	  0.2300	 20.9000	  20.900	 125.045
 2501	  0.2296	 20.9075	  20.907	 125.095
 2502	  0.2296	 20.9163	  20.916	 125.145
 2503	  0.2296	 20.9250	  20.925	 125.195
 2504	  0.2304	 20.9325	  20.932	 125.245
 2505	  0.2300	 20.9412	  20.941	 125.295
 2506	  0.2296	 20.9500	  20.950	 125.345
 2507	  0.2304	 20.9575	  20.958	 125.395
 2508	  0.2300	 20.9662	  20.966	 125.445
 2509	  0.2304	 20.9750	  20.975	 125.495
 2510	  0.2304	 20.9837	  20.984	 125.545
 2511	  0.2300	 20.9912	  20.991	 125.595
 2512	  0.2308	 21.0000	  21.000	 125.645
 2513	  0.2304	 21.0087	  21.009	 125.695
 2514	  0.2308	 21.0162	  21.016	 125.745
 2515	  0.2312	 21.0250	  21.025	 125.795
 2516	  0.2312	 21.0325	  21.032	 125.845
 2517	  0.2312	 21.0413	  21.041	 125.895
 2518	  0.2312	 21.0500	  21.050	 125.945
 2519	  0.2312	 21.0588	  21.059	 125.995
 2520	  0.2308	 21.0662	  21.066	 126.045
 2521	  0.2312	 21.0750	  21.075	 126.095
 2522	  0.2308	 21.0837	  21.084	 126.145
 2523	  0.2312	 21.0912	  21.091	 126.195
 2524	  0.2308	 21.1000	  21.100	 126.245
 2525	  0.2312	 21.1087	  21.109	 126.295
 2526	  0.2320	 21.1162	  21.116	 126.345
 2527	  0.2316	 21.1250	  21.125	 126.395
 2528	  0.2316	 21.1337	  21.134	 126.445
 2529	  0.2324	 21.1412	  21.141	 126.495
 2530	  0.2320	 21.1500	  21.150	 126.545
 2531	  0.2320	 21.1587	  21.159	 126.595
 2532	  0.2320	 21.1675	  21.167	 126.645
 2533	  0.2320	 21.1750	  21.175	 126.695
 2534	  0.2320	 21.1838	  21.184	 126.745
 2535	  0.2324	 21.1925	  21.192	 126.795
 2536	  0.2316	 21.2000	  21.200	 126.845
 2537	  0.2316	 21.2087	  21.209	 126.895
 2538	  0.2316	 21.2175	  21.217	 126.945
 2539	  0.2320	 21.2262	  21.226	 126.995
 2540	  0.2320	 21.2337	  21.234	 127.045
 2541	  0.2316	 21.2425	  21.243	 127.095
 2542	  0.2316	 21.2500	  21.250	 127.145
 2543	  0.2320	 21.2587	  21.259	 127.195
 2544	  0.2312	 21.2675	  21.267	 127.245
 2545	  0.2320	 21.2750	  21.275	 127.295
 2546	  0.2316	 21.2837	  21.284	 127.345
 2547	  0.2320	 21.2925	  21.292	 127.395
 2548	  0.2324	 21.3013	  21.301	 127.445
 2549	  0.2324	 21.3088	  21.309	 127.495
 2550	  0.2328	 21.3175	  21.317	 127.545
 2551	  0.2320	 21.3263	  21.326	 127.595
 2552	  0.2324	 21.3337	  21.334	 127.645
 2553	  0.2320	 21.3425	  21.342	 127.695
 2554	  0.2320	 21.3512	  21.351	 127.745
 2555	  0.2324	 21.3587	  21.359	 127.795
 2556	  0.2328	 21.3675	  21.368	 127.845
 2557	  0.2332	 21.3762	  21.376	 127.895
 2558	  0.2328	 21.3837	  21.384	 127.945
 2559	  0.2328	 21.3925	  21.392	 127.995
 2560	  0.2320	 21.4012	  21.401	 128.045
 2561	  0.2328	 21.4087	  21.409	 128.095
 2562	  0.2332	 21.4175	  21.417	 128.145
 2563	  0.2328	 21.4263	  21.426	 128.195
 2564	  0.2328	 21.4350	  21.435	 128.245
 2565	  0.2332	 21.4425	  21.442	 128.295
 2566	  0.2332	 21.4513	  21.451	 128.345
 2567	  0.2332	 21.4600	  21.460	 128.395
 2568	  0.2336	 21.4675	  21.467	 128.445
 2569	  0.2328	 21.4762	  21.476	 128.495
 2570	  0.2328	 21.4850	  21.485	 128.545
 2571	  0.2324	 21.4937	  21.494	 128.595
 2572	  0.2332	 21.5012	  21.501	 128.645
 2573	  0.2328	 21.5100	  21.510	 128.695
 2574	  0.2328	 21.5187	  21.519	 128.745
 2575	  0.2324	 21.5262	  21.526	 128.795
 2576	  0.2336	 21.5350	  21.535	 128.845
 2577	  0.2340	 21.5437	  21.544	 128.895
 2578	  0.2340	 21.5513	  21.551	 128.945
 2579	  0.2336	 21.5600	  21.560	 128.995
 2580	  0.2336	 21.5688	  21.569	 129.045
 2581	  0.2340	 21.5763	  21.576	 129.095
 2582	  0.2328	 21.5850	  21.585	 129.145
 2583	  0.2324	 21.5938	  21.594	 129.195
 2584	  0.2324	 21.6012	  21.601	 129.245
 2585	  0.2332	 21.6100	  21.610	 129.295
 2586	  0.2328	 21.6187	  21.619	 129.345
 2587	  0.2336	 21.6275	  21.627	 129.395
 2588	  0.2332	 21.6350	  21.635	 129.445
 2589	  0.2336	 21.6437	  21.644	 129.495
 2590	  0.2336	 21.6525	  21.653	 129.545
 2591	  0.2336	 21.6600	  21.660	 129.595
 2592	  0.2336	 21.6687	  21.669	 129.645
 2593	  0.2336	 21.6775	  21.677	 129.695
 2594	  0.2336	 21.6862	  21.686	 129.745
 2595	  0.2332	 21.6938	  21.694	 129.795
 2596	  0.2332	 21.7025	  21.702	 129.845
 2597	  0.2332	 21.7113	  21.711	 129.895
 2598	  0.2332	 21.7188	  21.719	 129.945
 2599	  0.2344	 21.7275	  21.727	 129.995
 2600	  0.2336	 21.7362	  21.736	 130.045
 2601	  0.2336	 21.7437	  21.744	 130.095
 2602	  0.2340	 21.7525	  21.752	 130.145
 2603	  0.2340	 21.7612	  21.761	 130.195
 2604	  0.2348	 21.7700	  21.770	 130.245
 2605	  0.2340	 21.7775	  21.778	 130.295
 2606	  0.2344	 21.7862	  21.786	 130.345
 2607	  0.2340	 21.7950	  21.795	 130.395
 2608	  0.2344	 21.8037	  21.804	 130.445
 2609	  0.2340	 21.8112	  21.811	 130.495
 2610	  0.2344	 21.8200	  21.820	 130.545
 2611	  0.2336	 21.8275	  21.827	 130.595
 2612	  0.2344	 21.8363	  21.836	 130.645
 2613	  0.2348	 21.8450	  21.845	 130.695
 2614	  0.2344	 21.8538	  21.854	 130.745
 2615	  0.2340	 21.8612	  21.861	 130.795
 2616	  0.2344	 21.8700	  21.870	 130.845
 2617	  0.2344	 21.8787	  21.879	 130.895
 2618	  0.2348	 21.8875	  21.887	 130.945
 2619	  0.2340	 21.8950	  21.895	 130.995
 2620	  0.2340	 21.9037	  21.904	 131.045
 2621	  0.2352	 21.9112	  21.911	 131.095
 2622	  0.2344	 21.9200	  21.920	 131.145
 2623	  0.2348	 21.9287	  21.929	 131.195
 2624	  0.2356	 21.9375	  21.938	 131.245
 2625	  0.2348	 21.9450	  21.945	 131.295
 2626	  0.2348	 21.9537	  21.954	 131.345
 2627	  0.2348	 21.9625	  21.962	 131.395
 2628	  0.2344	 21.9712	  21.971	 131.445
 2629	  0.2344	 21.9788	  21.979	 131.495
 2630	  0.2352	 21.9875	  21.987	 131.545
 2631	  0.2356	 21.9963	  21.996	 131.595
 2632	  0.2356	 22.0037	  22.004	 131.645
 2633	  0.2356	 22.0125	  22.012	 131.695
 2634	  0.2352	 22.0212	  22.021	 131.745
 2635	  0.2352	 22.0287	  22.029	 131.795
 2636	  0.2356	 22.0375	  22.038	 131.845
 2637	  0.2360	 22.0462	  22.046	 131.895
 2638	  0.2352	 22.0550	  22.055	 131.945
 2639	  0.2352	 22.0625	  22.062	 131.995
 2640	  0.2352	 22.0712	  22.071	 132.045
 2641	  0.2356	 22.0800	  22.080	 132.095
 2642	  0.2356	 22.0875	  22.087	 132.145
 2643	  0.2352	 22.0962	  22.096	 132.195
 2644	  0.2356	 22.1050	  22.105	 132.245
 2645	  0.2352	 22.1125	  22.112	 132.295
 2646	  0.2352	 22.1213	  22.121	 132.345
 2647	  0.2352	 22.1300	  22.130	 132.395
 2648	  0.2352	 22.1375	  22.137	 132.445
 2649	  0.2352	 22.1462	  22.146	 132.495
 2650	  0.2352	 22.1550	  22.155	 132.545
 2651	  0.2360	 22.1625	  22.163	 132.595
 2652	  0.2356	 22.1712	  22.171	 132.645
 2653	  0.2364	 22.1800	  22.180	 132.695
 2654	  0.2356	 22.1887	  22.189	 132.745
 2655	  0.2352	 22.1962	  22.196	 132.795
 2656	  0.2360	 22.2050	  22.205	 132.845
 2657	  0.2356	 22.2137	  22.214	 132.895
 2658	  0.2364	 22.2212	  22.221	 132.945
 2659	  0.2356	 22.2300	  22.230	 132.995
 2660	  0.2360	 22.2387	  22.239	 133.045
 2661	  0.2360	 22.2475	  22.247	 133.095
 2662	  0.2360	 22.2550	  22.255	 133.145
 2663	  0.2360	 22.2638	  22.264	 133.195
 2664	  0.2356	 22.2725	  22.272	 133.245
 2665	  0.2360	 22.2800	  22.280	 133.295
 2666	  0.2360	 22.2887	  22.289	 133.345
 2667	  0.2364	 22.2975	  22.297	 133.395
 2668	  0.2356	 22.3050	  22.305	 133.445
 2669	  0.2356	 22.3137	  22.314	 133.495
 2670	  0.2356	 22.3225	  22.323	 133.545
 2671	  0.2360	 22.3300	  22.330	 133.595
 2672	  0.2352	 22.3387	  22.339	 133.645
 2673	  0.2356	 22.3475	  22.347	 133.695
 2674	  0.2356	 22.3562	  22.356	 133.745
 2675	  0.2360	 22.3637	  22.364	 133.795
 2676	  0.2360	 22.3725	  22.372	 133.845
 2677	  0.2356	 22.3813	  22.381	 133.895
 2678	  0.2352	 22.3888	  22.389	 133.945
 2679	  0.2356	 22.3975	  22.397	 133.995
 2680	  0.2352	 22.4062	  22.406	 134.045
 2681	  0.2356	 22.4137	  22.414	 134.095
 2682	  0.2356	 22.4225	  22.422	 134.145
 2683	  0.2360	 22.4312	  22.431	 134.195
 2684	  0.2360	 22.4387	  22.439	 134.245
 2685	  0.2356	 22.4475	  22.448	 134.295
 2686	  0.2360	 22.4562	  22.456	 134.345
 2687	  0.2364	 22.4650	  22.465	 134.395
 2688	  0.2368	 22.4725	  22.472	 134.445
 2689	  0.2364	 22.4812	  22.481	 134.495
 2690	  0.2364	 22.4900	  22.490	 134.545
 2691	  0.2372	 22.4975	  22.497	 134.595
 2692	  0.2364	 22.5063	  22.506	 134.645
 2693	  0.2368	 22.5150	  22.515	 134.695
 2694	  0.2372	 22.5225	  22.522	 134.745
 2695	  0.2368	 22.5312	  22.531	 134.795
 2696	  0.2372	 22.5400	  22.540	 134.845
 2697	  0.2368	 22.5475	  22.547	 134.895
 2698	  0.2364	 22.5562	  22.556	 134.945
 2699	  0.2372	 22.5650	  22.565	 134.995
 2700	  0.2372	 22.5737	  22.574	 135.045
 2701	  0.2364	 22.5812	  22.581	 135.095
 2702	  0.2364	 22.5900	  22.590	 135.145
 2703	  0.2368	 22.5987	  22.599	 135.195
 2704	  0.2376	 22.6075	  22.608	 135.245
 2705	  0.2372	 22.6150	  22.615	 135.295
 2706	  0.2368	 22.6237	  22.624	 135.345
 2707	  0.2368	 22.6313	  22.631	 135.395
 2708	  0.2364	 22.6400	  22.640	 135.445
 2709	  0.2368	 22.6488	  22.649	 135.495
 2710	  0.2372	 22.6575	  22.657	 135.545
 2711	  0.2368	 22.6650	  22.665	 135.595
 2712	  0.2376	 22.6737	  22.674	 135.645
 2713	  0.2380	 22.6825	  22.682	 135.695
 2714	  0.2380	 22.6900	  22.690	 135.745
 2715	  0.2376	 22.6987	  22.699	 135.795
 2716	  0.2380	 22.7075	  22.707	 135.845
 2717	  0.2380	 22.7150	  22.715	 135.895
 2718	  0.2384	 22.7237	  22.724	 135.945
 2719	  0.2384	 22.7325	  22.733	 135.995
 2720	  0.2380	 22.7412	  22.741	 136.045
 2721	  0.2384	 22.7487	  22.749	 136.095
 2722	  0.2384	 22.7575	  22.757	 136.145
 2723	  0.2380	 22.7662	  22.766	 136.195
 2724	  0.2376	 22.7738	  22.774	 136.245
 2725	  0.2380	 22.7825	  22.782	 136.295
 2726	  0.2372	 22.7913	  22.791	 136.345
 2727	  0.2372	 22.7987	  22.799	 136.395
 2728	  0.2376	 22.8075	  22.807	 136.445
 2729	  0.2376	 22.8162	  22.816	 136.495
 2730	  0.2372	 22.8237	  22.824	 136.545
 2731	  0.2384	 22.8325	  22.832	 136.595
 2732	  0.2380	 22.8412	  22.841	 136.645
 2733	  0.2384	 22.8487	  22.849	 136.695
 2734	  0.2384	 22.8575	  22.858	 136.745
 2735	  0.2388	 22.8662	  22.866	 136.795
 2736	  0.2388	 22.8737	  22.874	 136.845
 2737	  0.2392	 22.8825	  22.882	 136.895
 2738	  0.2392	 22.8912	  22.891	 136.945
 2739	  0.2396	 22.9000	  22.900	 136.995
 2740	  0.2392	 22.9075	  22.907	 137.045
 2741	  0.2396	 22.9163	  22.916	 137.095
 2742	  0.2396	 22.9250	  22.925	 137.145
 2743	  0.2384	 22.9325	  22.932	 137.195
 2744	  0.2392	 22.9412	  22.941	 137.245
 2745	  0.2380	 22.9500	  22.950	 137.295
 2746	  0.2384	 22.9575	  22.957	 137.345
 2747	  0.2384	 22.9662	  22.966	 137.395
 2748	  0.2384	 22.9750	  22.975	 137.445
 2749	  0.2396	 22.9825	  22.983	 137.495
 2750	  0.2388	 22.9912	  22.991	 137.545
 2751	  0.2388	 23.0000	  23.000	 137.595
 2752	  0.2384	 23.0075	  23.007	 137.645
 2753	  0.2380	 23.0162	  23.016	 137.695
 2754	  0.2388	 23.0250	  23.025	 137.745
 2755	  0.2388	 23.0337	  23.034	 137.795
 2756	  0.2388	 23.0413	  23.041	 137.845
 2757	  0.2392	 23.0500	  23.050	 137.895
 2758	  0.2384	 23.0588	  23.059	 137.945
 2759	  0.2388	 23.0662	  23.066	 137.995
 2760	  0.2384	 23.0750	  23.075	 138.045
 2761	  0.2388	 23.0837	  23.084	 138.095
 2762	  0.2396	 23.0912	  23.091	 138.145
 2763	  0.2388	 23.1000	  23.100	 138.195
 2764	  0.2388	 23.1087	  23.109	 138.245
 2765	  0.2388	 23.1150	  23.115	 138.295
 2766	  0.2392	 23.1237	  23.124	 138.345
 2767	  0.2392	 23.1325	  23.132	 138.395
 2768	  0.2392	 23.1400	  23.140	 138.445
 2769	  0.2388	 23.1488	  23.149	 138.495
 2770	  0.2396	 23.1575	  23.157	 138.545
 2771	  0.2396	 23.1663	  23.166	 138.595
 2772	  0.2392	 23.1737	  23.174	 138.645
 2773	  0.2388	 23.1825	  23.182	 138.695
 2774	  0.2388	 23.1900	  23.190	 138.745
 2775	  0.2396	 23.1987	  23.199	 138.795
 2776	  0.2396	 23.2075	  23.207	 138.845
 2777	  0.2396	 23.2150	  23.215	 138.895
 2778	  0.2392	 23.2237	  23.224	 138.945
 2779	  0.2396	 23.2325	  23.233	 138.995
 2780	  0.2396	 23.2400	  23.240	 139.045
 2781	  0.2392	 23.2487	  23.249	 139.095
 2782	  0.2396	 23.2575	  23.257	 139.145
 2783	  0.2396	 23.2662	  23.266	 139.195
 2784	  0.2400	 23.2738	  23.274	 139.245
 2785	  0.2400	 23.2825	  23.282	 139.295
 2786	  0.2400	 23.2913	  23.291	 139.345
 2787	  0.2400	 23.2987	  23.299	 139.395
 2788	  0.2400	 23.3075	  23.307	 139.445
 2789	  0.2400	 23.3162	  23.316	 139.495
 2790	  0.2404	 23.3250	  23.325	 139.545
 2791	  0.2400	 23.3325	  23.332	 139.595
 2792	  0.2400	 23.3412	  23.341	 139.645
 2793	  0.2404	 23.3500	  23.350	 139.695
 2794	  0.2400	 23.3575	  23.358	 139.745
 2795	  0.2408	 23.3662	  23.366	 139.795
 2796	  0.2408	 23.3737	  23.374	 139.845
 2797	  0.2404	 23.3825	  23.382	 139.895
 2798	  0.2404	 23.3912	  23.391	 139.945
 2799	  0.2404	 23.3988	  23.399	 139.995
 2800	  0.2404	 23.4075	  23.407	 140.045
 2801	  0.2404	 23.4163	  23.416	 140.095
 2802	  0.2404	 23.4237	  23.424	 140.145
 2803	  0.2404	 23.4325	  23.432	 140.195
 2804	  0.2408	 23.4412	  23.441	 140.245
 2805	  0.2412	 23.4487	  23.449	 140.295
 2806	  0.2404	 23.4575	  23.457	 140.345
 2807	  0.2404	 23.4662	  23.466	 140.395
 2808	  0.2400	 23.4737	  23.474	 140.445
 2809	  0.2404	 23.4825	  23.483	 140.495
 2810	  0.2404	 23.4912	  23.491	 140.545
 2811	  0.2404	 23.4987	  23.499	 140.595
 2812	  0.2400	 23.5075	  23.507	 140.645
 2813	  0.2404	 23.5162	  23.516	 140.695
 2814	  0.2404	 23.5238	  23.524	 140.745
 2815	  0.2400	 23.5325	  23.532	 140.795
 2816	  0.2400	 23.5413	  23.541	 140.845
 2817	  0.2408	 23.5487	  23.549	 140.895
 2818	  0.2404	 23.5575	  23.557	 140.945
 2819	  0.2400	 23.5662	  23.566	 140.995
 2820	  0.2404	 23.5750	  23.575	 141.045
 2821	  0.2404	 23.5825	  23.582	 141.095
 2822	  0.2400	 23.5912	  23.591	 141.145
 2823	  0.2404	 23.6000	  23.600	 141.195
 2824	  0.2404	 23.6075	  23.608	 141.245
 2825	  0.2404	 23.6162	  23.616	 141.295
 2826	  0.2404	 23.6237	  23.624	 141.345
 2827	  0.2408	 23.6325	  23.632	 141.395
 2828	  0.2404	 23.6412	  23.641	 141.445
 2829	  0.2412	 23.6488	  23.649	 141.495
 2830	  0.2412	 23.6575	  23.657	 141.545
 2831	  0.2416	 23.6663	  23.666	 141.595
 2832	  0.2408	 23.6737	  23.674	 141.645
 2833	  0.2420	 23.6825	  23.682	 141.695
 2834	  0.2412	 23.6912	  23.691	 141.745
 2835	  0.2416	 23.6987	  23.699	 141.795
 2836	  0.2408	 23.7075	  23.707	 141.845
 2837	  0.2408	 23.7162	  23.716	 141.895
 2838	  0.2404	 23.7237	  23.724	 141.945
 2839	  0.2408	 23.7325	  23.733	 141.995
 2840	  0.2408	 23.7412	  23.741	 142.045
 2841	  0.2408	 23.7487	  23.749	 142.095
 2842	  0.2404	 23.7575	  23.757	 142.145
 2843	  0.2412	 23.7662	  23.766	 142.195
 2844	  0.2412	 23.7738	  23.774	 142.245
 2845	  0.2416	 23.7825	  23.782	 142.295
 2846	  0.2412	 23.7913	  23.791	 142.345
 2847	  0.2412	 23.7987	  23.799	 142.395
 2848	  0.2412	 23.8075	  23.807	 142.445
 2849	  0.2416	 23.8162	  23.816	 142.495
 2850	  0.2416	 23.8237	  23.824	 142.545
 2851	  0.2416	 23.8325	  23.832	 142.595
 2852	  0.2420	 23.8412	  23.841	 142.645
 2853	  0.2416	 23.8500	  23.850	 142.695
 2854	  0.2416	 23.8575	  23.858	 142.745
 2855	  0.2408	 23.8662	  23.866	 142.795
 2856	  0.2412	 23.8737	  23.874	 142.845
 2857	  0.2416	 23.8825	  23.882	 142.895
 2858	  0.2416	 23.8912	  23.891	 142.945
 2859	  0.2416	 23.9000	  23.900	 142.995
 2860	  0.2424	 23.9075	  23.907	 143.045
 2861	  0.2416	 23.9163	  23.916	 143.095
 2862	  0.2420	 23.9237	  23.924	 143.145
 2863	  0.2416	 23.9325	  23.932	 143.195
 2864	  0.2416	 23.9412	  23.941	 143.245
 2865	  0.2424	 23.9487	  23.949	 143.295
 2866	  0.2420	 23.9575	  23.957	 143.345
 2867	  0.2416	 23.9662	  23.966	 143.395
 2868	  0.2420	 23.9750	  23.975	 143.445
 2869	  0.2416	 23.9825	  23.983	 143.495
 2870	  0.2416	 23.9912	  23.991	 143.545
 2871	  0.2416	 24.0000	  24.000	 143.595
 2872	  0.2416	 24.0075	  24.007	 143.645
 2873	  0.2416	 24.0162	  24.016	 143.695
 2874	  0.2416	 24.0250	  24.025	 143.745
 2875	  0.2412	 24.0325	  24.032	 143.795
 2876	  0.2420	 24.0413	  24.041	 143.845
 2877	  0.2424	 24.0500	  24.050	 143.895
 2878	  0.2420	 24.0575	  24.057	 143.945
 2879	  0.2416	 24.0662	  24.066	 143.995
 2880	  0.2420	 24.0750	  24.075	 144.045
 2881	  0.2420	 24.0825	  24.082	 144.095
 2882	  0.2416	 24.0912	  24.091	 144.145
 2883	  0.2420	 24.1000	  24.100	 144.195
 2884	  0.2424	 24.1075	  24.108	 144.245
 2885	  0.2424	 24.1162	  24.116	 144.295
 2886	  0.2424	 24.1250	  24.125	 144.345
 2887	  0.2420	 24.1325	  24.132	 144.395
 2888	  0.2428	 24.1412	  24.141	 144.445
 2889	  0.2420	 24.1500	  24.150	 144.495
 2890	  0.2424	 24.1575	  24.157	 144.545
 2891	  0.2424	 24.1663	  24.166	 144.595
 2892	  0.2420	 24.1750	  24.175	 144.645
 2893	  0.2428	 24.1825	  24.182	 144.695
 2894	  0.2420	 24.1912	  24.191	 144.745
 2895	  0.2424	 24.2000	  24.200	 144.795
 2896	  0.2424	 24.2075	  24.207	 144.845
 2897	  0.2424	 24.2162	  24.216	 144.895
 2898	  0.2428	 24.2250	  24.225	 144.945
 2899	  0.2428	 24.2325	  24.233	 144.995
 2900	  0.2424	 24.2412	  24.241	 145.045
 2901	  0.2424	 24.2487	  24.249	 145.095
 2902	  0.2424	 24.2575	  24.257	 145.145
 2903	  0.2428	 24.2662	  24.266	 145.195
 2904	  0.2428	 24.2750	  24.275	 145.245
 2905	  0.2428	 24.2825	  24.282	 145.295
 2906	  0.2428	 24.2913	  24.291	 145.345
 2907	  0.2428	 24.2987	  24.299	 145.395
 2908	  0.2432	 24.3075	  24.307	 145.445
 2909	  0.2432	 24.3162	  24.316	 145.495
 2910	  0.2428	 24.3237	  24.324	 145.545
 2911	  0.2428	 24.3325	  24.332	 145.595
 2912	  0.2436	 24.3412	  24.341	 145.645
 2913	  0.2432	 24.3487	  24.349	 145.695
 2914	  0.2428	 24.3575	  24.358	 145.745
 2915	  0.2428	 24.3662	  24.366	 145.795
 2916	  0.2432	 24.3737	  24.374	 145.845
 2917	  0.2436	 24.3825	  24.382	 145.895
 2918	  0.2432	 24.3912	  24.391	 145.945
 2919	  0.2432	 24.4000	  24.400	 145.995
 2920	  0.2432	 24.4075	  24.407	 146.045
 2921	  0.2440	 24.4163	  24.416	 146.095
 2922	  0.2436	 24.4250	  24.425	 146.145
 2923	  0.2440	 24.4325	  24.432	 146.195
 2924	  0.2444	 24.4412	  24.441	 146.245
 2925	  0.2440	 24.4500	  24.450	 146.295
 2926	  0.2444	 24.4575	  24.457	 146.345
 2927	  0.2436	 24.4662	  24.466	 146.395
 2928	  0.2436	 24.4737	  24.474	 146.445
 2929	  0.2440	 24.4825	  24.483	 146.495
 2930	  0.2436	 24.4912	  24.491	 146.545
 2931	  0.2444	 24.4987	  24.499	 146.595
 2932	  0.2440	 24.5075	  24.507	 146.645
 2933	  0.2436	 24.5162	  24.516	 146.695
 2934	  0.2432	 24.5238	  24.524	 146.745
 2935	  0.2432	 24.5325	  24.532	 146.795
 2936	  0.2432	 24.5413	  24.541	 146.845
 2937	  0.2436	 24.5487	  24.549	 146.895
 2938	  0.2432	 24.5575	  24.557	 146.945
 2939	  0.2436	 24.5662	  24.566	 146.995
 2940	  0.2436	 24.5750	  24.575	 147.045
 2941	  0.2428	 24.5825	  24.582	 147.095
 2942	  0.2432	 24.5912	  24.591	 147.145
 2943	  0.2440	 24.6000	  24.600	 147.195
 2944	  0.2436	 24.6075	  24.608	 147.245
 2945	  0.2432	 24.6162	  24.616	 147.295
 2946	  0.2436	 24.6237	  24.624	 147.345
 2947	  0.2440	 24.6325	  24.632	 147.395
 2948	  0.2436	 24.6412	  24.641	 147.445
 2949	  0.2436	 24.6500	  24.650	 147.495
 2950	  0.2436	 24.6575	  24.657	 147.545
 2951	  0.2436	 24.6663	  24.666	 147.595
 2952	  0.2436	 24.6750	  24.675	 147.645
 2953	  0.2436	 24.6825	  24.682	 147.695
 2954	  0.2436	 24.6912	  24.691	 147.745
 2955	  0.2436	 24.7000	  24.700	 147.795
 2956	  0.2440	 24.7075	  24.707	 147.845
 2957	  0.2440	 24.7162	  24.716	 147.895
 2958	  0.2440	 24.7250	  24.725	 147.945
 2959	  0.2444	 24.7337	  24.734	 147.995
 2960	  0.2440	 24.7412	  24.741	 148.045
 2961	  0.2440	 24.7500	  24.750	 148.095
 2962	  0.2440	 24.7575	  24.757	 148.145
 2963	  0.2448	 24.7662	  24.766	 148.195
 2964	  0.2448	 24.7750	  24.775	 148.245
 2965	  0.2444	 24.7837	  24.784	 148.295
 2966	  0.2448	 24.7913	  24.791	 148.345
 2967	  0.2440	 24.8000	  24.800	 148.395
 2968	  0.2444	 24.8088	  24.809	 148.445
 2969	  0.2444	 24.8162	  24.816	 148.495
 2970	  0.2440	 24.8250	  24.825	 148.545
 2971	  0.2444	 24.8337	  24.834	 148.595
 2972	  0.2440	 24.8425	  24.842	 148.645
 2973	  0.2448	 24.8500	  24.850	 148.695
 2974	  0.2448	 24.8587	  24.859	 148.745
 2975	  0.2452	 24.8675	  24.868	 148.795
 2976	  0.2452	 24.8750	  24.875	 148.845
 2977	  0.2448	 24.8837	  24.884	 148.895
 2978	  0.2448	 24.8925	  24.892	 148.945
 2979	  0.2444	 24.9000	  24.900	 148.995
 2980	  0.2452	 24.9087	  24.909	 149.045
 2981	  0.2444	 24.9175	  24.917	 149.095
 2982	  0.2444	 24.9250	  24.925	 149.145
 2983	  0.2448	 24.9338	  24.934	 149.195
 2984	  0.2448	 24.9425	  24.942	 149.245
 2985	  0.2448	 24.9513	  24.951	 149.295
 2986	  0.2448	 24.9587	  24.959	 149.345
 2987	  0.2448	 24.9675	  24.967	 149.395
 2988	  0.2448	 24.9762	  24.976	 149.445
 2989	  0.2448	 24.9837	  24.984	 149.495
 2990	  0.2452	 24.9925	  24.993	 149.545
 2991	  0.2456	 25.0012	  25.001	 149.595
 2992	  0.2452	 25.0087	  25.009	 149.645
 2993	  0.2448	 25.0175	  25.017	 149.695
 2994	  0.2448	 25.0262	  25.026	 149.745
 2995	  0.2452	 25.0337	  25.034	 149.795
 2996	  0.2452	 25.0425	  25.042	 149.845
 2997	  0.2448	 25.0512	  25.051	 149.895
 2998	  0.2444	 25.0600	  25.060	 149.945
 2999	  0.2440	 25.0675	  25.067	 149.995
 3000	  0.2448	 25.0763	  25.076	 150.045
 3001	  0.2448	 25.0850	  25.085	 150.095
 3002	  0.2452	 25.0925	  25.092	 150.145
 3003	  0.2452	 25.1012	  25.101	 150.195
 3004	  0.2444	 25.1100	  25.110	 150.245
 3005	  0.2452	 25.1187	  25.119	 150.295
 3006	  0.2452	 25.1262	  25.126	 150.345
 3007	  0.2456	 25.1350	  25.135	 150.395
 3008	  0.2452	 25.1437	  25.144	 150.445
 3009	  0.2452	 25.1512	  25.151	 150.495
 3010	  0.2456	 25.1600	  25.160	 150.545
 3011	  0.2452	 25.1687	  25.169	 150.595
 3012	  0.2456	 25.1762	  25.176	 150.645
 3013	  0.2452	 25.1850	  25.185	 150.695
 3014	  0.2448	 25.1938	  25.194	 150.745
 3015	  0.2456	 25.2013	  25.201	 150.795
 3016	  0.2460	 25.2100	  25.210	 150.845
 3017	  0.2456	 25.2188	  25.219	 150.895
 3018	  0.2460	 25.2275	  25.227	 150.945
 3019	  0.2460	 25.2350	  25.235	 150.995
 3020	  0.2456	 25.2437	  25.244	 151.045
 3021	  0.2456	 25.2525	  25.252	 151.095
 3022	  0.2464	 25.2600	  25.260	 151.145
 3023	  0.2460	 25.2687	  25.269	 151.195
 3024	  0.2456	 25.2775	  25.278	 151.245
 3025	  0.2456	 25.2850	  25.285	 151.295
 3026	  0.2452	 25.2937	  25.294	 151.345
 3027	  0.2456	 25.3025	  25.302	 151.395
 3028	  0.2448	 25.3100	  25.310	 151.445
 3029	  0.2456	 25.3188	  25.319	 151.495
 3030	  0.2456	 25.3275	  25.327	 151.545
 3031	  0.2456	 25.3363	  25.336	 151.595
 3032	  0.2456	 25.3438	  25.344	 151.645
 3033	  0.2460	 25.3525	  25.352	 151.695
 3034	  0.2464	 25.3612	  25.361	 151.745
 3035	  0.2460	 25.3687	  25.369	 151.795
 3036	  0.2460	 25.3775	  25.377	 151.845
 3037	  0.2464	 25.3862	  25.386	 151.895
 3038	  0.2460	 25.3950	  25.395	 151.945
 3039	  0.2460	 25.4025	  25.403	 151.995
 3040	  0.2464	 25.4112	  25.411	 152.045
 3041	  0.2460	 25.4200	  25.420	 152.095
 3042	  0.2464	 25.4275	  25.427	 152.145
 3043	  0.2464	 25.4362	  25.436	 152.195
 3044	  0.2464	 25.4450	  25.445	 152.245
 3045	  0.2460	 25.4537	  25.454	 152.295
 3046	  0.2460	 25.4613	  25.461	 152.345
 3047	  0.2464	 25.4700	  25.470	 152.395
 3048	  0.2456	 25.4788	  25.479	 152.445
 3049	  0.2460	 25.4862	  25.486	 152.495
 3050	  0.2456	 25.4950	  25.495	 152.545
 3051	  0.2460	 25.5037	  25.504	 152.595
 3052	  0.2460	 25.5112	  25.511	 152.645
 3053	  0.2460	 25.5200	  25.520	 152.695
 3054	  0.2464	 25.5287	  25.529	 152.745
 3055	  0.2460	 25.5375	  25.538	 152.795
 3056	  0.2468	 25.5450	  25.545	 152.845
 3057	  0.2464	 25.5537	  25.554	 152.895
 3058	  0.2468	 25.5625	  25.562	 152.945
 3059	  0.2464	 25.5700	  25.570	 152.995
 3060	  0.2464	 25.5787	  25.579	 153.045
 3061	  0.2464	 25.5875	  25.587	 153.095
 3062	  0.2460	 25.5962	  25.596	 153.145
 3063	  0.2460	 25.6038	  25.604	 153.195
 3064	  0.2468	 25.6125	  25.612	 153.245
 3065	  0.2460	 25.6213	  25.621	 153.295
 3066	  0.2460	 25.6287	  25.629	 153.345
 3067	  0.2460	 25.6375	  25.637	 153.395
 3068	  0.2460	 25.6462	  25.646	 153.445
 3069	  0.2464	 25.6550	  25.655	 153.495
 3070	  0.2464	 25.6625	  25.662	 153.545
 3071	  0.2464	 25.6712	  25.671	 153.595
 3072	  0.2464	 25.6800	  25.680	 153.645
 3073	  0.2464	 25.6887	  25.689	 153.695
 3074	  0.2468	 25.6962	  25.696	 153.745
 3075	  0.2460	 25.7050	  25.705	 153.795
 3076	  0.2460	 25.7137	  25.714	 153.845
 3077	  0.2464	 25.7212	  25.721	 153.895
 3078	  0.2468	 25.7300	  25.730	 153.945
 3079	  0.2460	 25.7387	  25.739	 153.995
 3080	  0.2464	 25.7463	  25.746	 154.045
 3081	  0.2464	 25.7550	  25.755	 154.095
 3082	  0.2460	 25.7638	  25.764	 154.145
 3083	  0.2456	 25.7725	  25.772	 154.195
 3084	  0.2464	 25.7800	  25.780	 154.245
 3085	  0.2460	 25.7887	  25.789	 154.295
 3086	  0.2464	 25.7975	  25.797	 154.345
 3087	  0.2468	 25.8050	  25.805	 154.395
 3088	  0.2464	 25.8137	  25.814	 154.445
 3089	  0.2472	 25.8225	  25.823	 154.495
 3090	  0.2464	 25.8312	  25.831	 154.545
 3091	  0.2468	 25.8387	  25.839	 154.595
 3092	  0.2468	 25.8475	  25.847	 154.645
 3093	  0.2464	 25.8562	  25.856	 154.695
 3094	  0.2464	 25.8650	  25.865	 154.745
 3095	  0.2472	 25.8725	  25.872	 154.795
 3096	  0.2472	 25.8812	  25.881	 154.845
 3097	  0.2476	 25.8900	  25.890	 154.895
 3098	  0.2468	 25.8975	  25.897	 154.945
 3099	  0.2468	 25.9062	  25.906	 154.995
 3100	  0.2468	 25.9150	  25.915	 155.045
 3101	  0.2464	 25.9225	  25.922	 155.095
 3102	  0.2464	 25.9312	  25.931	 155.145
 3103	  0.2468	 25.9400	  25.940	 155.195
 3104	  0.2472	 25.9487	  25.949	 155.245
 3105	  0.2468	 25.9562	  25.956	 155.295
 3106	  0.2468	 25.9650	  25.965	 155.345
 3107	  0.2460	 25.9737	  25.974	 155.395
 3108	  0.2468	 25.9825	  25.983	 155.445
 3109	  0.2464	 25.9900	  25.990	 155.495
 3110	  0.2460	 25.9987	  25.999	 155.545
 3111	  0.2464	 26.0075	  26.007	 155.595
 3112	  0.2472	 26.0150	  26.015	 155.645
 3113	  0.2468	 26.0238	  26.024	 155.695
 3114	  0.2468	 26.0325	  26.032	 155.745
 3115	  0.2468	 26.0400	  26.040	 155.795
 3116	  0.2476	 26.0487	  26.049	 155.845
 3117	  0.2476	 26.0575	  26.057	 155.895
 3118	  0.2472	 26.0662	  26.066	 155.945
 3119	  0.2472	 26.0737	  26.074	 155.995
 3120	  0.2468	 26.0825	  26.082	 156.045
 3121	  0.2468	 26.0912	  26.091	 156.095
 3122	  0.2468	 26.1000	  26.100	 156.145
 3123	  0.2460	 26.1075	  26.108	 156.195
 3124	  0.2460	 26.1162	  26.116	 156.245
 3125	  0.2464	 26.1250	  26.125	 156.295
 3126	  0.2468	 26.1325	  26.132	 156.345
 3127	  0.2472	 26.1412	  26.141	 156.395
 3128	  0.2468	 26.1500	  26.150	 156.445
 3129	  0.2468	 26.1587	  26.159	 156.495
 3130	  0.2468	 26.1663	  26.166	 156.545
 3131	  0.2472	 26.1750	  26.175	 156.595
 3132	  0.2476	 26.1838	  26.184	 156.645
 3133	  0.2472	 26.1925	  26.192	 156.695
 3134	  0.2476	 26.2000	  26.200	 156.745
 3135	  0.2476	 26.2087	  26.209	 156.795
 3136	  0.2476	 26.2175	  26.217	 156.845
 3137	  0.2480	 26.2250	  26.225	 156.895
 3138	  0.2472	 26.2337	  26.234	 156.945
 3139	  0.2476	 26.2425	  26.243	 156.995
 3140	  0.2480	 26.2500	  26.250	 157.045
 3141	  0.2476	 26.2587	  26.259	 157.095
 3142	  0.2476	 26.2675	  26.267	 157.145
 3143	  0.2472	 26.2762	  26.276	 157.195
 3144	  0.2472	 26.2837	  26.284	 157.245
 3145	  0.2480	 26.2925	  26.292	 157.295
 3146	  0.2476	 26.3000	  26.300	 157.345
 3147	  0.2480	 26.3088	  26.309	 157.395
 3148	  0.2472	 26.3175	  26.317	 157.445
 3149	  0.2472	 26.3263	  26.326	 157.495
 3150	  0.2468	 26.3337	  26.334	 157.545
 3151	  0.2472	 26.3425	  26.342	 157.595
 3152	  0.2472	 26.3512	  26.351	 157.645
 3153	  0.2464	 26.3600	  26.360	 157.695
 3154	  0.2472	 26.3675	  26.368	 157.745
 3155	  0.2472	 26.3762	  26.376	 157.795
 3156	  0.2472	 26.3850	  26.385	 157.845
 3157	  0.2476	 26.3925	  26.392	 157.895
 3158	  0.2472	 26.4012	  26.401	 157.945
 3159	  0.2472	 26.4100	  26.410	 157.995
 3160	  0.2468	 26.4175	  26.417	 158.045
 3161	  0.2472	 26.4262	  26.426	 158.095
 3162	  0.2468	 26.4350	  26.435	 158.145
 3163	  0.2468	 26.4425	  26.442	 158.195
 3164	  0.2472	 26.4513	  26.451	 158.245
 3165	  0.2468	 26.4600	  26.460	 158.295
 3166	  0.2468	 26.4688	  26.469	 158.345
 3167	  0.2468	 26.4762	  26.476	 158.395
 3168	  0.2460	 26.4850	  26.485	 158.445
 3169	  0.2468	 26.4937	  26.494	 158.495
 3170	  0.2464	 26.5025	  26.502	 158.545
 3171	  0.2464	 26.5100	  26.510	 158.595
 3172	  0.2456	 26.5187	  26.519	 158.645
 3173	  0.2444	 26.5275	  26.528	 158.695
 3174	  0.0856	 26.5350	  26.535	 158.745
 3175	  0.0012	 26.5437	  26.544	 158.795
 3176	  0.0016	 26.5525	  26.552	 158.845
 3177	  0.0016	 26.5600	  26.560	 158.895
 3178	  0.0016	 26.5687	  26.569	 158.945
 3179	  0.0012	 26.5775	  26.577	 158.995
 3180	  0.0016	 26.5850	  26.585	 159.045
 3181	  0.0012	 26.5938	  26.594	 159.095
 3182	  0.0020	 26.6025	  26.602	 159.145
 3183	  0.0024	 26.6100	  26.610	 159.195
 3184	  0.0016	 26.6187	  26.619	 159.245
 3185	  0.0020	 26.6275	  26.627	 159.295
 3186	  0.0016	 26.6362	  26.636	 159.345
 3187	  0.0012	 26.6437	  26.644	 159.395
 3188	  0.0016	 26.6525	  26.653	 159.445
 3189	  0.0012	 26.6612	  26.661	 159.495
 3190	  0.0016	 26.6687	  26.669	 159.545
 3191	  0.0016	 26.6775	  26.677	 159.595
 3192	  0.0016	 26.6862	  26.686	 159.645
 3193	  0.0016	 26.6937	  26.694	 159.695
 3194	  0.0016	 26.7025	  26.702	 159.745
 3195	  0.0016	 26.7113	  26.711	 159.795
 3196	  0.0012	 26.7188	  26.719	 159.845
 3197	  0.0012	 26.7275	  26.727	 159.895
 3198	  0.0016	 26.7362	  26.736	 159.945
 3199	  0.0016	 26.7450	  26.745	 159.995
 3200	  0.0016	 26.7525	  26.752	 160.045
 3201	  0.0016	 26.7612	  26.761	 160.095
 3202	  0.0016	 26.7700	  26.770	 160.145
 3203	  0.0016	 26.7775	  26.778	 160.195
 3204	  0.0016	 26.7862	  26.786	 160.245
 3205	  0.0020	 26.7950	  26.795	 160.295
 3206	  0.0020	 26.8025	  26.802	 160.345
 3207	  0.0020	 26.8112	  26.811	 160.395
 3208	  0.0020	 26.8200	  26.820	 160.445
 3209	  0.0020	 26.8275	  26.827	 160.495
 3210	  0.0024	 26.8363	  26.836	 160.545
 3211	  0.0020	 26.8450	  26.845	 160.595
ControlMode:	0
Rate:	 10.0000
(null)
4
step	1
0
5.000000
0.000000
1
1
0.500000
2
step	2
1
5.000000
0.000000
1
1
2.000000
3
step	3
5
2.000000
0.000000
1
0
30.000000
4
step	4
8
0.000000
0.000000
0
0
0.000000
0
2
