0
Diameter:	   5.00
   1.00
Area:	  19.6350
GaugeLength:	  50.00
2009-1-1
A3
001
DataNumber:	3009
index	Load(kN)	Defor(mm)	Stroke(mm)	Time(s)
    0	  0.0100	  0.0088	   0.009	   0.045
    1	  0.0092	  0.0162	   0.016	   0.095
    2	  0.0088	  0.0250	   0.025	   0.145
    3	  0.0088	  0.0337	   0.034	   0.195
    4	  0.0088	  0.0425	   0.043	   0.245
    5	  0.0088	  0.0500	   0.050	   0.295
    6	  0.0088	  0.0587	   0.059	   0.345
    7	  0.0096	  0.0675	   0.067	   0.395
    8	  0.0092	  0.0750	   0.075	   0.445
    9	  0.0092	  0.0837	   0.084	   0.495
   10	  0.0100	  0.0925	   0.093	   0.545
   11	  0.0100	  0.1013	   0.101	   0.595
   12	  0.0096	  0.1088	   0.109	   0.645
   13	  0.0096	  0.1175	   0.117	   0.695
   14	  0.0104	  0.1262	   0.126	   0.745
   15	  0.0100	  0.1337	   0.134	   0.795
   16	  0.0100	  0.1425	   0.142	   0.845
   17	  0.0096	  0.1512	   0.151	   0.895
   18	  0.0104	  0.1587	   0.159	   0.945
   19	  0.0104	  0.1675	   0.167	   0.995
   20	  0.0104	  0.1762	   0.176	   1.045
   21	  0.0100	  0.1850	   0.185	   1.095
   22	  0.0104	  0.1925	   0.192	   1.145
   23	  0.0100	  0.2013	   0.201	   1.195
   24	  0.0100	  0.2100	   0.210	   1.245
   25	  0.0100	  0.2175	   0.218	   1.295
   26	  0.0100	  0.2262	   0.226	   1.345
   27	  0.0104	  0.2350	   0.235	   1.395
   28	  0.0104	  0.2425	   0.242	   1.445
   29	  0.0104	  0.2512	   0.251	   1.495
   30	  0.0100	  0.2600	   0.260	   1.545
   31	  0.0104	  0.2675	   0.267	   1.595
   32	  0.0108	  0.2763	   0.276	   1.645
   33	  0.0108	  0.2850	   0.285	   1.695
   34	  0.0112	  0.2937	   0.294	   1.745
   35	  0.0108	  0.3012	   0.301	   1.795
   36	  0.0104	  0.3100	   0.310	   1.845
   37	  0.0108	  0.3187	   0.319	   1.895
   38	  0.0108	  0.3262	   0.326	   1.945
   39	  0.0108	  0.3350	   0.335	   1.995
   40	  0.0104	  0.3438	   0.344	   2.045
   41	  0.0112	  0.3512	   0.351	   2.095
   42	  0.0112	  0.3600	   0.360	   2.145
   43	  0.0108	  0.3688	   0.369	   2.195
   44	  0.0108	  0.3762	   0.376	   2.245
   45	  0.0112	  0.3850	   0.385	   2.295
   46	  0.0112	  0.3937	   0.394	   2.345
   47	  0.0120	  0.4013	   0.401	   2.395
   48	  0.0120	  0.4100	   0.410	   2.445
   49	  0.0120	  0.4187	   0.419	   2.495
   50	  0.0120	  0.4262	   0.426	   2.545
   51	  0.0112	  0.4350	   0.435	   2.595
   52	  0.0116	  0.4437	   0.444	   2.645
   53	  0.0116	  0.4512	   0.451	   2.695
   54	  0.0120	  0.4600	   0.460	   2.745
   55	  0.0120	  0.4688	   0.469	   2.795
   56	  0.0120	  0.4775	   0.477	   2.845
   57	  0.0116	  0.4850	   0.485	   2.895
   58	  0.0116	  0.4937	   0.494	   2.945
   59	  0.0116	  0.5025	   0.502	   2.995
   60	  0.0120	  0.5100	   0.510	   3.045
   61	  0.0120	  0.5188	   0.519	   3.095
   62	  0.0124	  0.5263	   0.526	   3.145
   63	  0.0124	  0.5350	   0.535	   3.195
   64	  0.0120	  0.5437	   0.544	   3.245
   65	  0.0116	  0.5525	   0.553	   3.295
   66	  0.0124	  0.5600	   0.560	   3.345
   67	  0.0120	  0.5687	   0.569	   3.395
   68	  0.0124	  0.5775	   0.577	   3.445
   69	  0.0120	  0.5850	   0.585	   3.495
   70	  0.0124	  0.5938	   0.594	   3.545
   71	  0.0120	  0.6025	   0.602	   3.595
   72	  0.0128	  0.6100	   0.610	   3.645
   73	  0.0128	  0.6187	   0.619	   3.695
   74	  0.0128	  0.6275	   0.627	   3.745
   75	  0.0120	  0.6350	   0.635	   3.795
   76	  0.0128	  0.6438	   0.644	   3.845
   77	  0.0132	  0.6525	   0.652	   3.895
   78	  0.0132	  0.6600	   0.660	   3.945
   79	  0.0132	  0.6687	   0.669	   3.995
   80	  0.0128	  0.6775	   0.678	   4.045
   81	  0.0132	  0.6850	   0.685	   4.095
   82	  0.0136	  0.6937	   0.694	   4.145
   83	  0.0132	  0.7012	   0.701	   4.195
   84	  0.0124	  0.7100	   0.710	   4.245
   85	  0.0140	  0.7188	   0.719	   4.295
   86	  0.0136	  0.7275	   0.727	   4.345
   87	  0.0136	  0.7350	   0.735	   4.395
   88	  0.0136	  0.7437	   0.744	   4.445
   89	  0.0140	  0.7525	   0.752	   4.495
   90	  0.0140	  0.7600	   0.760	   4.545
   91	  0.0140	  0.7688	   0.769	   4.595
   92	  0.0136	  0.7763	   0.776	   4.645
   93	  0.0132	  0.7850	   0.785	   4.695
   94	  0.0132	  0.7937	   0.794	   4.745
   95	  0.0136	  0.8012	   0.801	   4.795
   96	  0.0140	  0.8100	   0.810	   4.845
   97	  0.0140	  0.8187	   0.819	   4.895
   98	  0.0140	  0.8262	   0.826	   4.945
   99	  0.0140	  0.8350	   0.835	   4.995
  100	  0.0144	  0.8438	   0.844	   5.045
  101	  0.0144	  0.8525	   0.852	   5.095
  102	  0.0144	  0.8600	   0.860	   5.145
  103	  0.0144	  0.8687	   0.869	   5.195
  104	  0.0140	  0.8775	   0.877	   5.245
  105	  0.0152	  0.8850	   0.885	   5.295
  106	  0.0152	  0.8937	   0.894	   5.345
  107	  0.0156	  0.9025	   0.902	   5.395
  108	  0.0156	  0.9100	   0.910	   5.445
  109	  0.0152	  0.9187	   0.919	   5.495
  110	  0.0152	  0.9275	   0.927	   5.545
  111	  0.0152	  0.9350	   0.935	   5.595
  112	  0.0152	  0.9437	   0.944	   5.645
  113	  0.0144	  0.9512	   0.951	   5.695
  114	  0.0148	  0.9600	   0.960	   5.745
  115	  0.0156	  0.9688	   0.969	   5.795
  116	  0.0156	  0.9775	   0.977	   5.845
  117	  0.0160	  0.9850	   0.985	   5.895
  118	  0.0156	  0.9937	   0.994	   5.945
  119	  0.0152	  1.0025	   1.002	   5.995
  120	  0.0148	  1.0100	   1.010	   6.045
  121	  0.0152	  1.0187	   1.019	   6.095
  122	  0.0152	  1.0263	   1.026	   6.145
  123	  0.0152	  1.0350	   1.035	   6.195
  124	  0.0152	  1.0437	   1.044	   6.245
  125	  0.0156	  1.0512	   1.051	   6.295
  126	  0.0156	  1.0600	   1.060	   6.345
  127	  0.0156	  1.0688	   1.069	   6.395
  128	  0.0160	  1.0762	   1.076	   6.445
  129	  0.0156	  1.0850	   1.085	   6.495
  130	  0.0160	  1.0938	   1.094	   6.545
  131	  0.0160	  1.1025	   1.102	   6.595
  132	  0.0156	  1.1100	   1.110	   6.645
  133	  0.0160	  1.1187	   1.119	   6.695
  134	  0.0164	  1.1275	   1.127	   6.745
  135	  0.0168	  1.1363	   1.136	   6.795
  136	  0.0164	  1.1437	   1.144	   6.845
  137	  0.0164	  1.1525	   1.153	   6.895
  138	  0.0172	  1.1612	   1.161	   6.945
  139	  0.0168	  1.1687	   1.169	   6.995
  140	  0.0168	  1.1775	   1.178	   7.045
  141	  0.0164	  1.1850	   1.185	   7.095
  142	  0.0164	  1.1938	   1.194	   7.145
  143	  0.0168	  1.2025	   1.202	   7.195
  144	  0.0168	  1.2100	   1.210	   7.245
  145	  0.0172	  1.2188	   1.219	   7.295
  146	  0.0172	  1.2275	   1.227	   7.345
  147	  0.0180	  1.2350	   1.235	   7.395
  148	  0.0172	  1.2437	   1.244	   7.445
  149	  0.0180	  1.2525	   1.252	   7.495
  150	  0.0176	  1.2613	   1.261	   7.545
  151	  0.0180	  1.2687	   1.269	   7.595
  152	  0.0180	  1.2775	   1.277	   7.645
  153	  0.0176	  1.2862	   1.286	   7.695
  154	  0.0176	  1.2937	   1.294	   7.745
  155	  0.0176	  1.3025	   1.303	   7.795
  156	  0.0184	  1.3112	   1.311	   7.845
  157	  0.0180	  1.3188	   1.319	   7.895
  158	  0.0188	  1.3275	   1.327	   7.945
  159	  0.0184	  1.3362	   1.336	   7.995
  160	  0.0184	  1.3438	   1.344	   8.045
  161	  0.0184	  1.3525	   1.352	   8.095
  162	  0.0184	  1.3612	   1.361	   8.145
  163	  0.0188	  1.3687	   1.369	   8.195
  164	  0.0188	  1.3775	   1.377	   8.245
  165	  0.0188	  1.3863	   1.386	   8.295
  166	  0.0188	  1.3937	   1.394	   8.345
  167	  0.0188	  1.4025	   1.402	   8.395
  168	  0.0192	  1.4112	   1.411	   8.445
  169	  0.0188	  1.4187	   1.419	   8.495
  170	  0.0192	  1.4275	   1.428	   8.545
  171	  0.0196	  1.4362	   1.436	   8.595
  172	  0.0196	  1.4438	   1.444	   8.645
  173	  0.0188	  1.4525	   1.452	   8.695
  174	  0.0188	  1.4612	   1.461	   8.745
  175	  0.0188	  1.4688	   1.469	   8.795
  176	  0.0192	  1.4775	   1.477	   8.845
  177	  0.0192	  1.4862	   1.486	   8.895
  178	  0.0196	  1.4937	   1.494	   8.945
  179	  0.0196	  1.5025	   1.502	   8.995
  180	  0.0196	  1.5113	   1.511	   9.045
  181	  0.0196	  1.5187	   1.519	   9.095
  182	  0.0196	  1.5275	   1.527	   9.145
  183	  0.0196	  1.5362	   1.536	   9.195
  184	  0.0200	  1.5437	   1.544	   9.245
  185	  0.0204	  1.5525	   1.553	   9.295
  186	  0.0208	  1.5612	   1.561	   9.345
  187	  0.0204	  1.5688	   1.569	   9.395
  188	  0.0208	  1.5775	   1.577	   9.445
  189	  0.0204	  1.5862	   1.586	   9.495
  190	  0.0204	  1.5938	   1.594	   9.545
  191	  0.0200	  1.6025	   1.602	   9.595
  192	  0.0200	  1.6112	   1.611	   9.645
  193	  0.0204	  1.6187	   1.619	   9.695
  194	  0.0208	  1.6275	   1.627	   9.745
  195	  0.0208	  1.6363	   1.636	   9.795
  196	  0.0208	  1.6450	   1.645	   9.845
  197	  0.0204	  1.6525	   1.652	   9.895
  198	  0.0204	  1.6612	   1.661	   9.945
  199	  0.0200	  1.6700	   1.670	   9.995
  200	  0.0204	  1.6775	   1.678	  10.045
  201	  0.0216	  1.6862	   1.686	  10.095
  202	  0.0216	  1.6937	   1.694	  10.145
  203	  0.0216	  1.7025	   1.702	  10.195
  204	  0.0212	  1.7112	   1.711	  10.245
  205	  0.0216	  1.7188	   1.719	  10.295
  206	  0.0216	  1.7275	   1.727	  10.345
  207	  0.0216	  1.7350	   1.735	  10.395
  208	  0.0212	  1.7437	   1.744	  10.445
  209	  0.0212	  1.7525	   1.752	  10.495
  210	  0.0224	  1.7600	   1.760	  10.545
  211	  0.0224	  1.7687	   1.769	  10.595
  212	  0.0224	  1.7775	   1.777	  10.645
  213	  0.0220	  1.7850	   1.785	  10.695
  214	  0.0224	  1.7937	   1.794	  10.745
  215	  0.0224	  1.8025	   1.803	  10.795
  216	  0.0224	  1.8100	   1.810	  10.845
  217	  0.0228	  1.8187	   1.819	  10.895
  218	  0.0232	  1.8275	   1.827	  10.945
  219	  0.0228	  1.8362	   1.836	  10.995
  220	  0.0224	  1.8438	   1.844	  11.045
  221	  0.0232	  1.8525	   1.852	  11.095
  222	  0.0228	  1.8612	   1.861	  11.145
  223	  0.0236	  1.8687	   1.869	  11.195
  224	  0.0240	  1.8775	   1.877	  11.245
  225	  0.0236	  1.8862	   1.886	  11.295
  226	  0.0228	  1.8937	   1.894	  11.345
  227	  0.0232	  1.9025	   1.902	  11.395
  228	  0.0236	  1.9100	   1.910	  11.445
  229	  0.0236	  1.9187	   1.919	  11.495
  230	  0.0240	  1.9275	   1.928	  11.545
  231	  0.0248	  1.9362	   1.936	  11.595
  232	  0.0244	  1.9437	   1.944	  11.645
  233	  0.0248	  1.9525	   1.952	  11.695
  234	  0.0248	  1.9612	   1.961	  11.745
  235	  0.0248	  1.9688	   1.969	  11.795
  236	  0.0248	  1.9775	   1.977	  11.845
  237	  0.0248	  1.9862	   1.986	  11.895
  238	  0.0252	  1.9950	   1.995	  11.945
  239	  0.0252	  2.0025	   2.003	  11.995
  240	  0.0256	  2.0113	   2.011	  12.045
  241	  0.0256	  2.0187	   2.019	  12.095
  242	  0.0264	  2.0275	   2.027	  12.145
  243	  0.0264	  2.0362	   2.036	  12.195
  244	  0.0264	  2.0450	   2.045	  12.245
  245	  0.0268	  2.0525	   2.053	  12.295
  246	  0.0268	  2.0612	   2.061	  12.345
  247	  0.0264	  2.0700	   2.070	  12.395
  248	  0.0264	  2.0775	   2.077	  12.445
  249	  0.0264	  2.0863	   2.086	  12.495
  250	  0.0260	  2.0950	   2.095	  12.545
  251	  0.0268	  2.1037	   2.104	  12.595
  252	  0.0272	  2.1112	   2.111	  12.645
  253	  0.0272	  2.1200	   2.120	  12.695
  254	  0.0268	  2.1287	   2.129	  12.745
  255	  0.0272	  2.1363	   2.136	  12.795
  256	  0.0268	  2.1450	   2.145	  12.845
  257	  0.0268	  2.1537	   2.154	  12.895
  258	  0.0272	  2.1612	   2.161	  12.945
  259	  0.0268	  2.1700	   2.170	  12.995
  260	  0.0268	  2.1788	   2.179	  13.045
  261	  0.0272	  2.1862	   2.186	  13.095
  262	  0.0268	  2.1950	   2.195	  13.145
  263	  0.0268	  2.2037	   2.204	  13.195
  264	  0.0276	  2.2113	   2.211	  13.245
  265	  0.0280	  2.2200	   2.220	  13.295
  266	  0.0280	  2.2287	   2.229	  13.345
  267	  0.0284	  2.2362	   2.236	  13.395
  268	  0.0280	  2.2450	   2.245	  13.445
  269	  0.0284	  2.2537	   2.254	  13.495
  270	  0.0288	  2.2613	   2.261	  13.545
  271	  0.0288	  2.2700	   2.270	  13.595
  272	  0.0292	  2.2787	   2.279	  13.645
  273	  0.0292	  2.2862	   2.286	  13.695
  274	  0.0292	  2.2950	   2.295	  13.745
  275	  0.0296	  2.3038	   2.304	  13.795
  276	  0.0292	  2.3112	   2.311	  13.845
  277	  0.0296	  2.3200	   2.320	  13.895
  278	  0.0296	  2.3287	   2.329	  13.945
  279	  0.0300	  2.3363	   2.336	  13.995
  280	  0.0300	  2.3450	   2.345	  14.045
  281	  0.0300	  2.3537	   2.354	  14.095
  282	  0.0296	  2.3612	   2.361	  14.145
  283	  0.0296	  2.3700	   2.370	  14.195
  284	  0.0300	  2.3787	   2.379	  14.245
  285	  0.0304	  2.3875	   2.388	  14.295
  286	  0.0304	  2.3950	   2.395	  14.345
  287	  0.0308	  2.4037	   2.404	  14.395
  288	  0.0312	  2.4125	   2.412	  14.445
  289	  0.0316	  2.4200	   2.420	  14.495
  290	  0.0320	  2.4288	   2.429	  14.545
  291	  0.0320	  2.4375	   2.438	  14.595
  292	  0.0316	  2.4450	   2.445	  14.645
  293	  0.0316	  2.4537	   2.454	  14.695
  294	  0.0320	  2.4625	   2.462	  14.745
  295	  0.0316	  2.4713	   2.471	  14.795
  296	  0.0320	  2.4787	   2.479	  14.845
  297	  0.0316	  2.4875	   2.487	  14.895
  298	  0.0312	  2.4962	   2.496	  14.945
  299	  0.0324	  2.5037	   2.504	  14.995
  300	  0.0328	  2.5125	   2.513	  15.045
  301	  0.0324	  2.5213	   2.521	  15.095
  302	  0.0328	  2.5287	   2.529	  15.145
  303	  0.0328	  2.5375	   2.537	  15.195
  304	  0.0332	  2.5462	   2.546	  15.245
  305	  0.0332	  2.5538	   2.554	  15.295
  306	  0.0332	  2.5625	   2.562	  15.345
  307	  0.0332	  2.5700	   2.570	  15.395
  308	  0.0332	  2.5787	   2.579	  15.445
  309	  0.0340	  2.5875	   2.587	  15.495
  310	  0.0340	  2.5950	   2.595	  15.545
  311	  0.0340	  2.6037	   2.604	  15.595
  312	  0.0344	  2.6125	   2.612	  15.645
  313	  0.0344	  2.6212	   2.621	  15.695
  314	  0.0348	  2.6287	   2.629	  15.745
  315	  0.0348	  2.6375	   2.638	  15.795
  316	  0.0352	  2.6463	   2.646	  15.845
  317	  0.0356	  2.6537	   2.654	  15.895
  318	  0.0360	  2.6625	   2.662	  15.945
  319	  0.0360	  2.6712	   2.671	  15.995
  320	  0.0360	  2.6788	   2.679	  16.045
  321	  0.0364	  2.6875	   2.688	  16.095
  322	  0.0360	  2.6962	   2.696	  16.145
  323	  0.0356	  2.7037	   2.704	  16.195
  324	  0.0364	  2.7125	   2.712	  16.245
  325	  0.0368	  2.7213	   2.721	  16.295
  326	  0.0368	  2.7287	   2.729	  16.345
  327	  0.0364	  2.7375	   2.737	  16.395
  328	  0.0364	  2.7462	   2.746	  16.445
  329	  0.0372	  2.7550	   2.755	  16.495
  330	  0.0372	  2.7625	   2.763	  16.545
  331	  0.0368	  2.7713	   2.771	  16.595
  332	  0.0376	  2.7787	   2.779	  16.645
  333	  0.0376	  2.7875	   2.787	  16.695
  334	  0.0376	  2.7962	   2.796	  16.745
  335	  0.0384	  2.8050	   2.805	  16.795
  336	  0.0376	  2.8125	   2.812	  16.845
  337	  0.0380	  2.8212	   2.821	  16.895
  338	  0.0388	  2.8287	   2.829	  16.945
  339	  0.0388	  2.8375	   2.837	  16.995
  340	  0.0388	  2.8462	   2.846	  17.045
  341	  0.0380	  2.8550	   2.855	  17.095
  342	  0.0384	  2.8625	   2.862	  17.145
  343	  0.0384	  2.8712	   2.871	  17.195
  344	  0.0388	  2.8800	   2.880	  17.245
  345	  0.0388	  2.8875	   2.888	  17.295
  346	  0.0384	  2.8963	   2.896	  17.345
  347	  0.0380	  2.9050	   2.905	  17.395
  348	  0.0384	  2.9125	   2.912	  17.445
  349	  0.0388	  2.9212	   2.921	  17.495
  350	  0.0392	  2.9300	   2.930	  17.545
  351	  0.0388	  2.9388	   2.939	  17.595
  352	  0.0392	  2.9462	   2.946	  17.645
  353	  0.0388	  2.9550	   2.955	  17.695
  354	  0.0392	  2.9637	   2.964	  17.745
  355	  0.0400	  2.9712	   2.971	  17.795
  356	  0.0400	  2.9800	   2.980	  17.845
  357	  0.0408	  2.9887	   2.989	  17.895
  358	  0.0408	  2.9962	   2.996	  17.945
  359	  0.0408	  3.0050	   3.005	  17.995
  360	  0.0412	  3.0137	   3.014	  18.045
  361	  0.0416	  3.0213	   3.021	  18.095
  362	  0.0420	  3.0287	   3.029	  18.145
  363	  0.0416	  3.0375	   3.037	  18.195
  364	  0.0416	  3.0450	   3.045	  18.245
  365	  0.0420	  3.0538	   3.054	  18.295
  366	  0.0420	  3.0625	   3.062	  18.345
  367	  0.0424	  3.0700	   3.070	  18.395
  368	  0.0424	  3.0787	   3.079	  18.445
  369	  0.0424	  3.0875	   3.087	  18.495
  370	  0.0424	  3.0962	   3.096	  18.545
  371	  0.0428	  3.1037	   3.104	  18.595
  372	  0.0428	  3.1125	   3.112	  18.645
  373	  0.0432	  3.1212	   3.121	  18.695
  374	  0.0432	  3.1300	   3.130	  18.745
  375	  0.0428	  3.1375	   3.138	  18.795
  376	  0.0428	  3.1463	   3.146	  18.845
  377	  0.0436	  3.1550	   3.155	  18.895
  378	  0.0436	  3.1625	   3.162	  18.945
  379	  0.0440	  3.1712	   3.171	  18.995
  380	  0.0444	  3.1800	   3.180	  19.045
  381	  0.0436	  3.1875	   3.188	  19.095
  382	  0.0440	  3.1962	   3.196	  19.145
  383	  0.0440	  3.2050	   3.205	  19.195
  384	  0.0440	  3.2137	   3.214	  19.245
  385	  0.0440	  3.2225	   3.222	  19.295
  386	  0.0444	  3.2300	   3.230	  19.345
  387	  0.0444	  3.2387	   3.239	  19.395
  388	  0.0452	  3.2475	   3.247	  19.445
  389	  0.0452	  3.2550	   3.255	  19.495
  390	  0.0452	  3.2637	   3.264	  19.545
  391	  0.0448	  3.2725	   3.273	  19.595
  392	  0.0460	  3.2800	   3.280	  19.645
  393	  0.0460	  3.2887	   3.289	  19.695
  394	  0.0460	  3.2975	   3.297	  19.745
  395	  0.0460	  3.3062	   3.306	  19.795
  396	  0.0464	  3.3138	   3.314	  19.845
  397	  0.0468	  3.3225	   3.322	  19.895
  398	  0.0472	  3.3312	   3.331	  19.945
  399	  0.0468	  3.3400	   3.340	  19.995
  400	  0.0468	  3.3475	   3.347	  20.045
  401	  0.0468	  3.3562	   3.356	  20.095
  402	  0.0472	  3.3650	   3.365	  20.145
  403	  0.0476	  3.3725	   3.372	  20.195
  404	  0.0480	  3.3812	   3.381	  20.245
  405	  0.0476	  3.3900	   3.390	  20.295
  406	  0.0484	  3.3987	   3.399	  20.345
  407	  0.0488	  3.4062	   3.406	  20.395
  408	  0.0480	  3.4150	   3.415	  20.445
  409	  0.0484	  3.4237	   3.424	  20.495
  410	  0.0484	  3.4325	   3.432	  20.545
  411	  0.0492	  3.4400	   3.440	  20.595
  412	  0.0492	  3.4488	   3.449	  20.645
  413	  0.0492	  3.4575	   3.457	  20.695
  414	  0.0496	  3.4662	   3.466	  20.745
  415	  0.0496	  3.4737	   3.474	  20.795
  416	  0.0500	  3.4825	   3.482	  20.845
  417	  0.0500	  3.4913	   3.491	  20.895
  418	  0.0504	  3.4987	   3.499	  20.945
  419	  0.0508	  3.5075	   3.507	  20.995
  420	  0.0512	  3.5162	   3.516	  21.045
  421	  0.0504	  3.5250	   3.525	  21.095
  422	  0.0508	  3.5325	   3.533	  21.145
  423	  0.0512	  3.5412	   3.541	  21.195
  424	  0.0508	  3.5500	   3.550	  21.245
  425	  0.0516	  3.5575	   3.557	  21.295
  426	  0.0516	  3.5662	   3.566	  21.345
  427	  0.0516	  3.5750	   3.575	  21.395
  428	  0.0516	  3.5838	   3.584	  21.445
  429	  0.0524	  3.5912	   3.591	  21.495
  430	  0.0524	  3.6000	   3.600	  21.545
  431	  0.0524	  3.6087	   3.609	  21.595
  432	  0.0524	  3.6175	   3.617	  21.645
  433	  0.0520	  3.6250	   3.625	  21.695
  434	  0.0524	  3.6337	   3.634	  21.745
  435	  0.0520	  3.6425	   3.642	  21.795
  436	  0.0528	  3.6500	   3.650	  21.845
  437	  0.0524	  3.6587	   3.659	  21.895
  438	  0.0520	  3.6675	   3.668	  21.945
  439	  0.0528	  3.6762	   3.676	  21.995
  440	  0.0536	  3.6837	   3.684	  22.045
  441	  0.0528	  3.6925	   3.692	  22.095
  442	  0.0540	  3.7012	   3.701	  22.145
  443	  0.0540	  3.7088	   3.709	  22.195
  444	  0.0540	  3.7175	   3.717	  22.245
  445	  0.0544	  3.7262	   3.726	  22.295
  446	  0.0540	  3.7350	   3.735	  22.345
  447	  0.0548	  3.7425	   3.742	  22.395
  448	  0.0548	  3.7513	   3.751	  22.445
  449	  0.0544	  3.7600	   3.760	  22.495
  450	  0.0548	  3.7687	   3.769	  22.545
  451	  0.0552	  3.7762	   3.776	  22.595
  452	  0.0552	  3.7850	   3.785	  22.645
  453	  0.0556	  3.7937	   3.794	  22.695
  454	  0.0560	  3.8025	   3.803	  22.745
  455	  0.0560	  3.8100	   3.810	  22.795
  456	  0.0556	  3.8187	   3.819	  22.845
  457	  0.0568	  3.8262	   3.826	  22.895
  458	  0.0568	  3.8350	   3.835	  22.945
  459	  0.0568	  3.8438	   3.844	  22.995
  460	  0.0564	  3.8512	   3.851	  23.045
  461	  0.0564	  3.8600	   3.860	  23.095
  462	  0.0568	  3.8687	   3.869	  23.145
  463	  0.0580	  3.8775	   3.877	  23.195
  464	  0.0572	  3.8850	   3.885	  23.245
  465	  0.0576	  3.8937	   3.894	  23.295
  466	  0.0576	  3.9025	   3.902	  23.345
  467	  0.0584	  3.9112	   3.911	  23.395
  468	  0.0580	  3.9187	   3.919	  23.445
  469	  0.0588	  3.9275	   3.928	  23.495
  470	  0.0584	  3.9362	   3.936	  23.545
  471	  0.0584	  3.9437	   3.944	  23.595
  472	  0.0588	  3.9525	   3.952	  23.645
  473	  0.0588	  3.9612	   3.961	  23.695
  474	  0.0584	  3.9688	   3.969	  23.745
  475	  0.0588	  3.9775	   3.977	  23.795
  476	  0.0584	  3.9862	   3.986	  23.845
  477	  0.0596	  3.9937	   3.994	  23.895
  478	  0.0592	  4.0025	   4.003	  23.945
  479	  0.0596	  4.0113	   4.011	  23.995
  480	  0.0600	  4.0200	   4.020	  24.045
  481	  0.0604	  4.0275	   4.027	  24.095
  482	  0.0600	  4.0363	   4.036	  24.145
  483	  0.0600	  4.0450	   4.045	  24.195
  484	  0.0600	  4.0538	   4.054	  24.245
  485	  0.0608	  4.0612	   4.061	  24.295
  486	  0.0604	  4.0700	   4.070	  24.345
  487	  0.0608	  4.0775	   4.077	  24.395
  488	  0.0608	  4.0862	   4.086	  24.445
  489	  0.0612	  4.0950	   4.095	  24.495
  490	  0.0612	  4.1037	   4.104	  24.545
  491	  0.0616	  4.1112	   4.111	  24.595
  492	  0.0620	  4.1200	   4.120	  24.645
  493	  0.0620	  4.1275	   4.128	  24.695
  494	  0.0616	  4.1363	   4.136	  24.745
  495	  0.0624	  4.1450	   4.145	  24.795
  496	  0.0624	  4.1537	   4.154	  24.845
  497	  0.0624	  4.1613	   4.161	  24.895
  498	  0.0624	  4.1700	   4.170	  24.945
  499	  0.0628	  4.1788	   4.179	  24.995
  500	  0.0628	  4.1862	   4.186	  25.045
  501	  0.0628	  4.1950	   4.195	  25.095
  502	  0.0628	  4.2038	   4.204	  25.145
  503	  0.0632	  4.2112	   4.211	  25.195
  504	  0.0636	  4.2200	   4.220	  25.245
  505	  0.0644	  4.2287	   4.229	  25.295
  506	  0.0644	  4.2375	   4.237	  25.345
  507	  0.0644	  4.2450	   4.245	  25.395
  508	  0.0644	  4.2537	   4.254	  25.445
  509	  0.0652	  4.2625	   4.262	  25.495
  510	  0.0652	  4.2700	   4.270	  25.545
  511	  0.0656	  4.2787	   4.279	  25.595
  512	  0.0656	  4.2863	   4.286	  25.645
  513	  0.0656	  4.2950	   4.295	  25.695
  514	  0.0660	  4.3038	   4.304	  25.745
  515	  0.0660	  4.3125	   4.312	  25.795
  516	  0.0660	  4.3200	   4.320	  25.845
  517	  0.0660	  4.3288	   4.329	  25.895
  518	  0.0664	  4.3375	   4.338	  25.945
  519	  0.0668	  4.3450	   4.345	  25.995
  520	  0.0672	  4.3537	   4.354	  26.045
  521	  0.0668	  4.3625	   4.362	  26.095
  522	  0.0672	  4.3700	   4.370	  26.145
  523	  0.0672	  4.3787	   4.379	  26.195
  524	  0.0680	  4.3875	   4.387	  26.245
  525	  0.0676	  4.3950	   4.395	  26.295
  526	  0.0676	  4.4037	   4.404	  26.345
  527	  0.0676	  4.4125	   4.412	  26.395
  528	  0.0676	  4.4200	   4.420	  26.445
  529	  0.0680	  4.4288	   4.429	  26.495
  530	  0.0684	  4.4375	   4.438	  26.545
  531	  0.0684	  4.4450	   4.445	  26.595
  532	  0.0688	  4.4538	   4.454	  26.645
  533	  0.0696	  4.4625	   4.463	  26.695
  534	  0.0688	  4.4713	   4.471	  26.745
  535	  0.0692	  4.4787	   4.479	  26.795
  536	  0.0692	  4.4875	   4.487	  26.845
  537	  0.0692	  4.4962	   4.496	  26.895
  538	  0.0684	  4.5037	   4.504	  26.945
  539	  0.0688	  4.5125	   4.512	  26.995
  540	  0.0688	  4.5212	   4.521	  27.045
  541	  0.0696	  4.5287	   4.529	  27.095
  542	  0.0700	  4.5375	   4.537	  27.145
  543	  0.0704	  4.5450	   4.545	  27.195
  544	  0.0704	  4.5538	   4.554	  27.245
  545	  0.0708	  4.5625	   4.562	  27.295
  546	  0.0708	  4.5700	   4.570	  27.345
  547	  0.0708	  4.5788	   4.579	  27.395
  548	  0.0712	  4.5875	   4.588	  27.445
  549	  0.0716	  4.5950	   4.595	  27.495
  550	  0.0720	  4.6037	   4.604	  27.545
  551	  0.0716	  4.6125	   4.612	  27.595
  552	  0.0712	  4.6200	   4.620	  27.645
  553	  0.0716	  4.6287	   4.629	  27.695
  554	  0.0716	  4.6375	   4.637	  27.745
  555	  0.0724	  4.6450	   4.645	  27.795
  556	  0.0724	  4.6537	   4.654	  27.845
  557	  0.0728	  4.6625	   4.662	  27.895
  558	  0.0728	  4.6700	   4.670	  27.945
  559	  0.0732	  4.6788	   4.679	  27.995
  560	  0.0736	  4.6875	   4.688	  28.045
  561	  0.0736	  4.6950	   4.695	  28.095
  562	  0.0736	  4.7037	   4.704	  28.145
  563	  0.0736	  4.7125	   4.713	  28.195
  564	  0.0744	  4.7200	   4.720	  28.245
  565	  0.0736	  4.7287	   4.729	  28.295
  566	  0.0748	  4.7375	   4.737	  28.345
  567	  0.0744	  4.7462	   4.746	  28.395
  568	  0.0744	  4.7537	   4.754	  28.445
  569	  0.0748	  4.7625	   4.762	  28.495
  570	  0.0748	  4.7712	   4.771	  28.545
  571	  0.0752	  4.7787	   4.779	  28.595
  572	  0.0752	  4.7875	   4.787	  28.645
  573	  0.0760	  4.7950	   4.795	  28.695
  574	  0.0760	  4.8038	   4.804	  28.745
  575	  0.0760	  4.8125	   4.812	  28.795
  576	  0.0764	  4.8200	   4.820	  28.845
  577	  0.0764	  4.8287	   4.829	  28.895
  578	  0.0772	  4.8375	   4.838	  28.945
  579	  0.0772	  4.8450	   4.845	  28.995
  580	  0.0772	  4.8537	   4.854	  29.045
  581	  0.0784	  4.8625	   4.862	  29.095
  582	  0.0780	  4.8700	   4.870	  29.145
  583	  0.0780	  4.8787	   4.879	  29.195
  584	  0.0776	  4.8875	   4.887	  29.245
  585	  0.0772	  4.8950	   4.895	  29.295
  586	  0.0772	  4.9037	   4.904	  29.345
  587	  0.0776	  4.9125	   4.912	  29.395
  588	  0.0776	  4.9200	   4.920	  29.445
  589	  0.0784	  4.9288	   4.929	  29.495
  590	  0.0788	  4.9375	   4.938	  29.545
  591	  0.0784	  4.9450	   4.945	  29.595
  592	  0.0784	  4.9537	   4.954	  29.645
  593	  0.0792	  4.9625	   4.963	  29.695
  594	  0.0796	  4.9700	   4.970	  29.745
  595	  0.0800	  4.9787	   4.979	  29.795
  596	  0.0792	  4.9875	   4.987	  29.845
  597	  0.0792	  4.9950	   4.995	  29.895
  598	  0.0792	  5.0037	   5.004	  29.945
  599	  0.0800	  5.0125	   5.012	  29.995
  600	  0.0800	  5.0200	   5.020	  30.045
  601	  0.0800	  5.0287	   5.029	  30.095
  602	  0.0804	  5.0375	   5.037	  30.145
  603	  0.0804	  5.0450	   5.045	  30.195
  604	  0.0800	  5.0538	   5.054	  30.245
  605	  0.0800	  5.0625	   5.062	  30.295
  606	  0.0812	  5.0700	   5.070	  30.345
  607	  0.0800	  5.0787	   5.079	  30.395
  608	  0.0804	  5.0862	   5.086	  30.445
  609	  0.0808	  5.0950	   5.095	  30.495
  610	  0.0804	  5.1037	   5.104	  30.545
  611	  0.0808	  5.1112	   5.111	  30.595
  612	  0.0808	  5.1200	   5.120	  30.645
  613	  0.0808	  5.1287	   5.129	  30.695
  614	  0.0812	  5.1363	   5.136	  30.745
  615	  0.0812	  5.1450	   5.145	  30.795
  616	  0.0812	  5.1537	   5.154	  30.845
  617	  0.0816	  5.1625	   5.162	  30.895
  618	  0.0820	  5.1700	   5.170	  30.945
  619	  0.0824	  5.1788	   5.179	  30.995
  620	  0.0820	  5.1875	   5.188	  31.045
  621	  0.0820	  5.1950	   5.195	  31.095
  622	  0.0824	  5.2037	   5.204	  31.145
  623	  0.0828	  5.2125	   5.213	  31.195
  624	  0.0828	  5.2200	   5.220	  31.245
  625	  0.0828	  5.2287	   5.229	  31.295
  626	  0.0832	  5.2375	   5.237	  31.345
  627	  0.0836	  5.2450	   5.245	  31.395
  628	  0.0836	  5.2537	   5.254	  31.445
  629	  0.0840	  5.2625	   5.262	  31.495
  630	  0.0844	  5.2700	   5.270	  31.545
  631	  0.0848	  5.2787	   5.279	  31.595
  632	  0.0844	  5.2875	   5.287	  31.645
  633	  0.0844	  5.2950	   5.295	  31.695
  634	  0.0844	  5.3038	   5.304	  31.745
  635	  0.0848	  5.3125	   5.312	  31.795
  636	  0.0848	  5.3200	   5.320	  31.845
  637	  0.0848	  5.3287	   5.329	  31.895
  638	  0.0856	  5.3375	   5.338	  31.945
  639	  0.0856	  5.3450	   5.345	  31.995
  640	  0.0856	  5.3537	   5.354	  32.045
  641	  0.0856	  5.3625	   5.362	  32.095
  642	  0.0864	  5.3700	   5.370	  32.145
  643	  0.0864	  5.3787	   5.379	  32.195
  644	  0.0864	  5.3875	   5.387	  32.245
  645	  0.0864	  5.3950	   5.395	  32.295
  646	  0.0868	  5.4037	   5.404	  32.345
  647	  0.0868	  5.4125	   5.412	  32.395
  648	  0.0872	  5.4200	   5.420	  32.445
  649	  0.0864	  5.4288	   5.429	  32.495
  650	  0.0872	  5.4375	   5.438	  32.545
  651	  0.0880	  5.4450	   5.445	  32.595
  652	  0.0876	  5.4537	   5.454	  32.645
  653	  0.0880	  5.4625	   5.463	  32.695
  654	  0.0880	  5.4700	   5.470	  32.745
  655	  0.0888	  5.4787	   5.479	  32.795
  656	  0.0888	  5.4875	   5.487	  32.845
  657	  0.0888	  5.4950	   5.495	  32.895
  658	  0.0888	  5.5037	   5.504	  32.945
  659	  0.0880	  5.5125	   5.512	  32.995
  660	  0.0892	  5.5200	   5.520	  33.045
  661	  0.0892	  5.5287	   5.529	  33.095
  662	  0.0892	  5.5375	   5.537	  33.145
  663	  0.0892	  5.5450	   5.545	  33.195
  664	  0.0896	  5.5538	   5.554	  33.245
  665	  0.0896	  5.5625	   5.562	  33.295
  666	  0.0896	  5.5700	   5.570	  33.345
  667	  0.0892	  5.5787	   5.579	  33.395
  668	  0.0904	  5.5875	   5.588	  33.445
  669	  0.0904	  5.5963	   5.596	  33.495
  670	  0.0908	  5.6037	   5.604	  33.545
  671	  0.0916	  5.6125	   5.612	  33.595
  672	  0.0912	  5.6200	   5.620	  33.645
  673	  0.0916	  5.6287	   5.629	  33.695
  674	  0.0916	  5.6375	   5.637	  33.745
  675	  0.0916	  5.6450	   5.645	  33.795
  676	  0.0916	  5.6537	   5.654	  33.845
  677	  0.0912	  5.6625	   5.662	  33.895
  678	  0.0916	  5.6700	   5.670	  33.945
  679	  0.0916	  5.6788	   5.679	  33.995
  680	  0.0916	  5.6875	   5.688	  34.045
  681	  0.0920	  5.6950	   5.695	  34.095
  682	  0.0920	  5.7037	   5.704	  34.145
  683	  0.0924	  5.7125	   5.713	  34.195
  684	  0.0924	  5.7200	   5.720	  34.245
  685	  0.0928	  5.7287	   5.729	  34.295
  686	  0.0928	  5.7375	   5.737	  34.345
  687	  0.0932	  5.7450	   5.745	  34.395
  688	  0.0936	  5.7537	   5.754	  34.445
  689	  0.0936	  5.7625	   5.762	  34.495
  690	  0.0936	  5.7700	   5.770	  34.545
  691	  0.0936	  5.7787	   5.779	  34.595
  692	  0.0936	  5.7875	   5.787	  34.645
  693	  0.0944	  5.7950	   5.795	  34.695
  694	  0.0944	  5.8038	   5.804	  34.745
  695	  0.0944	  5.8125	   5.812	  34.795
  696	  0.0944	  5.8200	   5.820	  34.845
  697	  0.0936	  5.8287	   5.829	  34.895
  698	  0.0936	  5.8375	   5.838	  34.945
  699	  0.0940	  5.8450	   5.845	  34.995
  700	  0.0944	  5.8537	   5.854	  35.045
  701	  0.0948	  5.8625	   5.862	  35.095
  702	  0.0952	  5.8700	   5.870	  35.145
  703	  0.0952	  5.8787	   5.879	  35.195
  704	  0.0960	  5.8875	   5.887	  35.245
  705	  0.0968	  5.8950	   5.895	  35.295
  706	  0.0960	  5.9037	   5.904	  35.345
  707	  0.0956	  5.9125	   5.912	  35.395
  708	  0.0956	  5.9200	   5.920	  35.445
  709	  0.0964	  5.9288	   5.929	  35.495
  710	  0.0968	  5.9375	   5.938	  35.545
  711	  0.0968	  5.9450	   5.945	  35.595
  712	  0.0972	  5.9537	   5.954	  35.645
  713	  0.0976	  5.9625	   5.963	  35.695
  714	  0.0976	  5.9700	   5.970	  35.745
  715	  0.0976	  5.9787	   5.979	  35.795
  716	  0.0980	  5.9875	   5.987	  35.845
  717	  0.0976	  5.9950	   5.995	  35.895
  718	  0.0976	  6.0037	   6.004	  35.945
  719	  0.0980	  6.0125	   6.012	  35.995
  720	  0.0980	  6.0200	   6.020	  36.045
  721	  0.0980	  6.0287	   6.029	  36.095
  722	  0.0984	  6.0375	   6.037	  36.145
  723	  0.0992	  6.0450	   6.045	  36.195
  724	  0.0988	  6.0538	   6.054	  36.245
  725	  0.0992	  6.0625	   6.062	  36.295
  726	  0.0996	  6.0700	   6.070	  36.345
  727	  0.0992	  6.0787	   6.079	  36.395
  728	  0.0988	  6.0875	   6.088	  36.445
  729	  0.0992	  6.0963	   6.096	  36.495
  730	  0.0988	  6.1037	   6.104	  36.545
  731	  0.0996	  6.1125	   6.112	  36.595
  732	  0.0992	  6.1212	   6.121	  36.645
  733	  0.0988	  6.1287	   6.129	  36.695
  734	  0.1000	  6.1375	   6.137	  36.745
  735	  0.1004	  6.1462	   6.146	  36.795
  736	  0.1000	  6.1537	   6.154	  36.845
  737	  0.1008	  6.1625	   6.162	  36.895
  738	  0.1008	  6.1712	   6.171	  36.945
  739	  0.1012	  6.1788	   6.179	  36.995
  740	  0.1012	  6.1875	   6.188	  37.045
  741	  0.1012	  6.1962	   6.196	  37.095
  742	  0.1008	  6.2037	   6.204	  37.145
  743	  0.1012	  6.2125	   6.213	  37.195
  744	  0.1012	  6.2213	   6.221	  37.245
  745	  0.1012	  6.2287	   6.229	  37.295
  746	  0.1020	  6.2375	   6.237	  37.345
  747	  0.1016	  6.2462	   6.246	  37.395
  748	  0.1016	  6.2550	   6.255	  37.445
  749	  0.1020	  6.2625	   6.262	  37.495
  750	  0.1032	  6.2712	   6.271	  37.545
  751	  0.1032	  6.2800	   6.280	  37.595
  752	  0.1028	  6.2875	   6.287	  37.645
  753	  0.1032	  6.2962	   6.296	  37.695
  754	  0.1032	  6.3050	   6.305	  37.745
  755	  0.1024	  6.3137	   6.314	  37.795
  756	  0.1024	  6.3212	   6.321	  37.845
  757	  0.1032	  6.3300	   6.330	  37.895
  758	  0.1032	  6.3375	   6.338	  37.945
  759	  0.1036	  6.3463	   6.346	  37.995
  760	  0.1036	  6.3550	   6.355	  38.045
  761	  0.1044	  6.3637	   6.364	  38.095
  762	  0.1044	  6.3712	   6.371	  38.145
  763	  0.1040	  6.3800	   6.380	  38.195
  764	  0.1048	  6.3888	   6.389	  38.245
  765	  0.1052	  6.3962	   6.396	  38.295
  766	  0.1044	  6.4050	   6.405	  38.345
  767	  0.1040	  6.4137	   6.414	  38.395
  768	  0.1048	  6.4212	   6.421	  38.445
  769	  0.1044	  6.4300	   6.430	  38.495
  770	  0.1048	  6.4387	   6.439	  38.545
  771	  0.1056	  6.4462	   6.446	  38.595
  772	  0.1052	  6.4550	   6.455	  38.645
  773	  0.1056	  6.4637	   6.464	  38.695
  774	  0.1060	  6.4713	   6.471	  38.745
  775	  0.1064	  6.4800	   6.480	  38.795
  776	  0.1068	  6.4887	   6.489	  38.845
  777	  0.1068	  6.4962	   6.496	  38.895
  778	  0.1064	  6.5050	   6.505	  38.945
  779	  0.1068	  6.5138	   6.514	  38.995
  780	  0.1068	  6.5225	   6.523	  39.045
  781	  0.1068	  6.5300	   6.530	  39.095
  782	  0.1072	  6.5387	   6.539	  39.145
  783	  0.1072	  6.5475	   6.547	  39.195
  784	  0.1072	  6.5562	   6.556	  39.245
  785	  0.1076	  6.5637	   6.564	  39.295
  786	  0.1076	  6.5725	   6.572	  39.345
  787	  0.1084	  6.5812	   6.581	  39.395
  788	  0.1080	  6.5887	   6.589	  39.445
  789	  0.1088	  6.5975	   6.597	  39.495
  790	  0.1080	  6.6062	   6.606	  39.545
  791	  0.1084	  6.6137	   6.614	  39.595
  792	  0.1084	  6.6225	   6.622	  39.645
  793	  0.1092	  6.6312	   6.631	  39.695
  794	  0.1092	  6.6388	   6.639	  39.745
  795	  0.1092	  6.6475	   6.648	  39.795
  796	  0.1088	  6.6562	   6.656	  39.845
  797	  0.1088	  6.6637	   6.664	  39.895
  798	  0.1088	  6.6725	   6.672	  39.945
  799	  0.1092	  6.6812	   6.681	  39.995
  800	  0.1092	  6.6887	   6.689	  40.045
  801	  0.1096	  6.6975	   6.697	  40.095
  802	  0.1108	  6.7062	   6.706	  40.145
  803	  0.1100	  6.7137	   6.714	  40.195
  804	  0.1104	  6.7225	   6.722	  40.245
  805	  0.1100	  6.7312	   6.731	  40.295
  806	  0.1104	  6.7400	   6.740	  40.345
  807	  0.1108	  6.7475	   6.747	  40.395
  808	  0.1108	  6.7562	   6.756	  40.445
  809	  0.1112	  6.7650	   6.765	  40.495
  810	  0.1104	  6.7725	   6.773	  40.545
  811	  0.1108	  6.7812	   6.781	  40.595
  812	  0.1112	  6.7900	   6.790	  40.645
  813	  0.1116	  6.7975	   6.797	  40.695
  814	  0.1112	  6.8062	   6.806	  40.745
  815	  0.1112	  6.8150	   6.815	  40.795
  816	  0.1116	  6.8238	   6.824	  40.845
  817	  0.1120	  6.8312	   6.831	  40.895
  818	  0.1116	  6.8400	   6.840	  40.945
  819	  0.1120	  6.8487	   6.849	  40.995
  820	  0.1124	  6.8562	   6.856	  41.045
  821	  0.1132	  6.8650	   6.865	  41.095
  822	  0.1128	  6.8737	   6.874	  41.145
  823	  0.1132	  6.8812	   6.881	  41.195
  824	  0.1132	  6.8900	   6.890	  41.245
  825	  0.1136	  6.8987	   6.899	  41.295
  826	  0.1132	  6.9062	   6.906	  41.345
  827	  0.1136	  6.9150	   6.915	  41.395
  828	  0.1136	  6.9237	   6.924	  41.445
  829	  0.1140	  6.9312	   6.931	  41.495
  830	  0.1136	  6.9400	   6.940	  41.545
  831	  0.1140	  6.9488	   6.949	  41.595
  832	  0.1148	  6.9575	   6.957	  41.645
  833	  0.1148	  6.9650	   6.965	  41.695
  834	  0.1144	  6.9737	   6.974	  41.745
  835	  0.1148	  6.9825	   6.983	  41.795
  836	  0.1152	  6.9900	   6.990	  41.845
  837	  0.1152	  6.9987	   6.999	  41.895
  838	  0.1152	  7.0075	   7.007	  41.945
  839	  0.1148	  7.0150	   7.015	  41.995
  840	  0.1148	  7.0237	   7.024	  42.045
  841	  0.1156	  7.0325	   7.032	  42.095
  842	  0.1152	  7.0400	   7.040	  42.145
  843	  0.1156	  7.0487	   7.049	  42.195
  844	  0.1156	  7.0575	   7.057	  42.245
  845	  0.1156	  7.0662	   7.066	  42.295
  846	  0.1160	  7.0738	   7.074	  42.345
  847	  0.1160	  7.0825	   7.082	  42.395
  848	  0.1156	  7.0912	   7.091	  42.445
  849	  0.1160	  7.1000	   7.100	  42.495
  850	  0.1160	  7.1075	   7.108	  42.545
  851	  0.1168	  7.1163	   7.116	  42.595
  852	  0.1168	  7.1250	   7.125	  42.645
  853	  0.1164	  7.1325	   7.132	  42.695
  854	  0.1164	  7.1412	   7.141	  42.745
  855	  0.1168	  7.1500	   7.150	  42.795
  856	  0.1164	  7.1575	   7.157	  42.845
  857	  0.1168	  7.1662	   7.166	  42.895
  858	  0.1172	  7.1737	   7.174	  42.945
  859	  0.1168	  7.1825	   7.182	  42.995
  860	  0.1176	  7.1912	   7.191	  43.045
  861	  0.1180	  7.2000	   7.200	  43.095
  862	  0.1180	  7.2075	   7.207	  43.145
  863	  0.1176	  7.2162	   7.216	  43.195
  864	  0.1180	  7.2250	   7.225	  43.245
  865	  0.1184	  7.2337	   7.234	  43.295
  866	  0.1184	  7.2413	   7.241	  43.345
  867	  0.1184	  7.2500	   7.250	  43.395
  868	  0.1184	  7.2587	   7.259	  43.445
  869	  0.1184	  7.2675	   7.267	  43.495
  870	  0.1188	  7.2750	   7.275	  43.545
  871	  0.1188	  7.2838	   7.284	  43.595
  872	  0.1196	  7.2925	   7.293	  43.645
  873	  0.1188	  7.3000	   7.300	  43.695
  874	  0.1188	  7.3087	   7.309	  43.745
  875	  0.1192	  7.3175	   7.317	  43.795
  876	  0.1192	  7.3250	   7.325	  43.845
  877	  0.1188	  7.3337	   7.334	  43.895
  878	  0.1192	  7.3425	   7.342	  43.945
  879	  0.1188	  7.3512	   7.351	  43.995
  880	  0.1200	  7.3600	   7.360	  44.045
  881	  0.1196	  7.3675	   7.367	  44.095
  882	  0.1200	  7.3762	   7.376	  44.145
  883	  0.1200	  7.3850	   7.385	  44.195
  884	  0.1200	  7.3925	   7.392	  44.245
  885	  0.1200	  7.4012	   7.401	  44.295
  886	  0.1208	  7.4100	   7.410	  44.345
  887	  0.1212	  7.4175	   7.418	  44.395
  888	  0.1208	  7.4262	   7.426	  44.445
  889	  0.1208	  7.4350	   7.435	  44.495
  890	  0.1204	  7.4425	   7.442	  44.545
  891	  0.1212	  7.4512	   7.451	  44.595
  892	  0.1212	  7.4600	   7.460	  44.645
  893	  0.1220	  7.4675	   7.467	  44.695
  894	  0.1220	  7.4762	   7.476	  44.745
  895	  0.1216	  7.4850	   7.485	  44.795
  896	  0.1220	  7.4937	   7.494	  44.845
  897	  0.1220	  7.5012	   7.501	  44.895
  898	  0.1224	  7.5100	   7.510	  44.945
  899	  0.1220	  7.5187	   7.519	  44.995
  900	  0.1228	  7.5275	   7.527	  45.045
  901	  0.1228	  7.5350	   7.535	  45.095
  902	  0.1232	  7.5437	   7.544	  45.145
  903	  0.1228	  7.5525	   7.552	  45.195
  904	  0.1232	  7.5600	   7.560	  45.245
  905	  0.1232	  7.5687	   7.569	  45.295
  906	  0.1228	  7.5775	   7.577	  45.345
  907	  0.1232	  7.5850	   7.585	  45.395
  908	  0.1228	  7.5938	   7.594	  45.445
  909	  0.1232	  7.6025	   7.602	  45.495
  910	  0.1236	  7.6112	   7.611	  45.545
  911	  0.1240	  7.6187	   7.619	  45.595
  912	  0.1240	  7.6275	   7.628	  45.645
  913	  0.1236	  7.6363	   7.636	  45.695
  914	  0.1228	  7.6437	   7.644	  45.745
  915	  0.1232	  7.6525	   7.652	  45.795
  916	  0.1240	  7.6612	   7.661	  45.845
  917	  0.1236	  7.6700	   7.670	  45.895
  918	  0.1236	  7.6775	   7.677	  45.945
  919	  0.1236	  7.6862	   7.686	  45.995
  920	  0.1240	  7.6950	   7.695	  46.045
  921	  0.1240	  7.7025	   7.702	  46.095
  922	  0.1244	  7.7112	   7.711	  46.145
  923	  0.1248	  7.7200	   7.720	  46.195
  924	  0.1252	  7.7275	   7.727	  46.245
  925	  0.1252	  7.7362	   7.736	  46.295
  926	  0.1256	  7.7450	   7.745	  46.345
  927	  0.1252	  7.7537	   7.754	  46.395
  928	  0.1248	  7.7613	   7.761	  46.445
  929	  0.1252	  7.7700	   7.770	  46.495
  930	  0.1256	  7.7787	   7.779	  46.545
  931	  0.1256	  7.7862	   7.786	  46.595
  932	  0.1260	  7.7950	   7.795	  46.645
  933	  0.1260	  7.8038	   7.804	  46.695
  934	  0.1252	  7.8125	   7.812	  46.745
  935	  0.1256	  7.8200	   7.820	  46.795
  936	  0.1260	  7.8287	   7.829	  46.845
  937	  0.1260	  7.8375	   7.837	  46.895
  938	  0.1264	  7.8450	   7.845	  46.945
  939	  0.1260	  7.8537	   7.854	  46.995
  940	  0.1264	  7.8625	   7.862	  47.045
  941	  0.1272	  7.8700	   7.870	  47.095
  942	  0.1272	  7.8787	   7.879	  47.145
  943	  0.1272	  7.8863	   7.886	  47.195
  944	  0.1272	  7.8950	   7.895	  47.245
  945	  0.1272	  7.9037	   7.904	  47.295
  946	  0.1268	  7.9125	   7.912	  47.345
  947	  0.1268	  7.9200	   7.920	  47.395
  948	  0.1268	  7.9288	   7.929	  47.445
  949	  0.1280	  7.9375	   7.938	  47.495
  950	  0.1276	  7.9450	   7.945	  47.545
  951	  0.1280	  7.9537	   7.954	  47.595
  952	  0.1276	  7.9625	   7.962	  47.645
  953	  0.1276	  7.9700	   7.970	  47.695
  954	  0.1284	  7.9787	   7.979	  47.745
  955	  0.1288	  7.9875	   7.987	  47.795
  956	  0.1284	  7.9950	   7.995	  47.845
  957	  0.1288	  8.0037	   8.004	  47.895
  958	  0.1288	  8.0125	   8.012	  47.945
  959	  0.1292	  8.0200	   8.020	  47.995
  960	  0.1292	  8.0287	   8.029	  48.045
  961	  0.1288	  8.0375	   8.037	  48.095
  962	  0.1296	  8.0462	   8.046	  48.145
  963	  0.1296	  8.0538	   8.054	  48.195
  964	  0.1292	  8.0625	   8.062	  48.245
  965	  0.1292	  8.0712	   8.071	  48.295
  966	  0.1292	  8.0787	   8.079	  48.345
  967	  0.1292	  8.0875	   8.087	  48.395
  968	  0.1288	  8.0962	   8.096	  48.445
  969	  0.1300	  8.1050	   8.105	  48.495
  970	  0.1300	  8.1125	   8.113	  48.545
  971	  0.1300	  8.1213	   8.121	  48.595
  972	  0.1292	  8.1300	   8.130	  48.645
  973	  0.1300	  8.1375	   8.137	  48.695
  974	  0.1300	  8.1462	   8.146	  48.745
  975	  0.1296	  8.1550	   8.155	  48.795
  976	  0.1300	  8.1625	   8.162	  48.845
  977	  0.1300	  8.1712	   8.171	  48.895
  978	  0.1300	  8.1800	   8.180	  48.945
  979	  0.1308	  8.1875	   8.188	  48.995
  980	  0.1308	  8.1962	   8.196	  49.045
  981	  0.1308	  8.2050	   8.205	  49.095
  982	  0.1316	  8.2125	   8.212	  49.145
  983	  0.1320	  8.2212	   8.221	  49.195
  984	  0.1312	  8.2300	   8.230	  49.245
  985	  0.1312	  8.2375	   8.238	  49.295
  986	  0.1320	  8.2463	   8.246	  49.345
  987	  0.1324	  8.2550	   8.255	  49.395
  988	  0.1320	  8.2625	   8.262	  49.445
  989	  0.1324	  8.2712	   8.271	  49.495
  990	  0.1320	  8.2800	   8.280	  49.545
  991	  0.1320	  8.2875	   8.287	  49.595
  992	  0.1324	  8.2962	   8.296	  49.645
  993	  0.1324	  8.3050	   8.305	  49.695
  994	  0.1324	  8.3138	   8.314	  49.745
  995	  0.1324	  8.3212	   8.321	  49.795
  996	  0.1328	  8.3300	   8.330	  49.845
  997	  0.1332	  8.3387	   8.339	  49.895
  998	  0.1328	  8.3462	   8.346	  49.945
  999	  0.1332	  8.3550	   8.355	  49.995
 1000	  0.1332	  8.3637	   8.364	  50.045
 1001	  0.1332	  8.3725	   8.372	  50.095
 1002	  0.1332	  8.3800	   8.380	  50.145
 1003	  0.1340	  8.3888	   8.389	  50.195
 1004	  0.1336	  8.3975	   8.398	  50.245
 1005	  0.1340	  8.4050	   8.405	  50.295
 1006	  0.1344	  8.4137	   8.414	  50.345
 1007	  0.1344	  8.4225	   8.422	  50.395
 1008	  0.1344	  8.4300	   8.430	  50.445
 1009	  0.1344	  8.4388	   8.439	  50.495
 1010	  0.1344	  8.4475	   8.448	  50.545
 1011	  0.1348	  8.4550	   8.455	  50.595
 1012	  0.1348	  8.4637	   8.464	  50.645
 1013	  0.1348	  8.4725	   8.472	  50.695
 1014	  0.1352	  8.4812	   8.481	  50.745
 1015	  0.1344	  8.4887	   8.489	  50.795
 1016	  0.1352	  8.4975	   8.497	  50.845
 1017	  0.1352	  8.5050	   8.505	  50.895
 1018	  0.1356	  8.5138	   8.514	  50.945
 1019	  0.1356	  8.5225	   8.523	  50.995
 1020	  0.1352	  8.5312	   8.531	  51.045
 1021	  0.1356	  8.5387	   8.539	  51.095
 1022	  0.1356	  8.5475	   8.547	  51.145
 1023	  0.1352	  8.5562	   8.556	  51.195
 1024	  0.1352	  8.5638	   8.564	  51.245
 1025	  0.1360	  8.5725	   8.573	  51.295
 1026	  0.1360	  8.5813	   8.581	  51.345
 1027	  0.1360	  8.5887	   8.589	  51.395
 1028	  0.1356	  8.5975	   8.597	  51.445
 1029	  0.1364	  8.6062	   8.606	  51.495
 1030	  0.1368	  8.6150	   8.615	  51.545
 1031	  0.1368	  8.6225	   8.622	  51.595
 1032	  0.1364	  8.6312	   8.631	  51.645
 1033	  0.1364	  8.6400	   8.640	  51.695
 1034	  0.1368	  8.6475	   8.648	  51.745
 1035	  0.1372	  8.6562	   8.656	  51.795
 1036	  0.1368	  8.6650	   8.665	  51.845
 1037	  0.1368	  8.6737	   8.674	  51.895
 1038	  0.1364	  8.6812	   8.681	  51.945
 1039	  0.1368	  8.6900	   8.690	  51.995
 1040	  0.1372	  8.6975	   8.698	  52.045
 1041	  0.1376	  8.7063	   8.706	  52.095
 1042	  0.1372	  8.7150	   8.715	  52.145
 1043	  0.1372	  8.7238	   8.724	  52.195
 1044	  0.1372	  8.7312	   8.731	  52.245
 1045	  0.1376	  8.7400	   8.740	  52.295
 1046	  0.1380	  8.7487	   8.749	  52.345
 1047	  0.1380	  8.7562	   8.756	  52.395
 1048	  0.1384	  8.7650	   8.765	  52.445
 1049	  0.1380	  8.7737	   8.774	  52.495
 1050	  0.1376	  8.7812	   8.781	  52.545
 1051	  0.1380	  8.7900	   8.790	  52.595
 1052	  0.1376	  8.7987	   8.799	  52.645
 1053	  0.1384	  8.8062	   8.806	  52.695
 1054	  0.1384	  8.8150	   8.815	  52.745
 1055	  0.1388	  8.8237	   8.824	  52.795
 1056	  0.1384	  8.8313	   8.831	  52.845
 1057	  0.1384	  8.8400	   8.840	  52.895
 1058	  0.1388	  8.8488	   8.849	  52.945
 1059	  0.1392	  8.8562	   8.856	  52.995
 1060	  0.1392	  8.8650	   8.865	  53.045
 1061	  0.1388	  8.8737	   8.874	  53.095
 1062	  0.1392	  8.8825	   8.882	  53.145
 1063	  0.1396	  8.8900	   8.890	  53.195
 1064	  0.1400	  8.8987	   8.899	  53.245
 1065	  0.1400	  8.9075	   8.908	  53.295
 1066	  0.1396	  8.9150	   8.915	  53.345
 1067	  0.1400	  8.9237	   8.924	  53.395
 1068	  0.1400	  8.9325	   8.932	  53.445
 1069	  0.1404	  8.9400	   8.940	  53.495
 1070	  0.1400	  8.9487	   8.949	  53.545
 1071	  0.1400	  8.9575	   8.957	  53.595
 1072	  0.1400	  8.9650	   8.965	  53.645
 1073	  0.1400	  8.9738	   8.974	  53.695
 1074	  0.1408	  8.9825	   8.983	  53.745
 1075	  0.1404	  8.9900	   8.990	  53.795
 1076	  0.1396	  8.9987	   8.999	  53.845
 1077	  0.1404	  9.0075	   9.007	  53.895
 1078	  0.1404	  9.0150	   9.015	  53.945
 1079	  0.1404	  9.0237	   9.024	  53.995
 1080	  0.1408	  9.0325	   9.033	  54.045
 1081	  0.1400	  9.0400	   9.040	  54.095
 1082	  0.1400	  9.0487	   9.049	  54.145
 1083	  0.1408	  9.0575	   9.057	  54.195
 1084	  0.1408	  9.0662	   9.066	  54.245
 1085	  0.1412	  9.0737	   9.074	  54.295
 1086	  0.1408	  9.0825	   9.082	  54.345
 1087	  0.1408	  9.0912	   9.091	  54.395
 1088	  0.1416	  9.0988	   9.099	  54.445
 1089	  0.1412	  9.1075	   9.108	  54.495
 1090	  0.1412	  9.1163	   9.116	  54.545
 1091	  0.1416	  9.1237	   9.124	  54.595
 1092	  0.1416	  9.1325	   9.132	  54.645
 1093	  0.1416	  9.1400	   9.140	  54.695
 1094	  0.1408	  9.1487	   9.149	  54.745
 1095	  0.1412	  9.1575	   9.158	  54.795
 1096	  0.1416	  9.1663	   9.166	  54.845
 1097	  0.1416	  9.1737	   9.174	  54.895
 1098	  0.1420	  9.1825	   9.182	  54.945
 1099	  0.1416	  9.1912	   9.191	  54.995
 1100	  0.1424	  9.2000	   9.200	  55.045
 1101	  0.1420	  9.2075	   9.207	  55.095
 1102	  0.1416	  9.2162	   9.216	  55.145
 1103	  0.1416	  9.2238	   9.224	  55.195
 1104	  0.1424	  9.2325	   9.233	  55.245
 1105	  0.1428	  9.2413	   9.241	  55.295
 1106	  0.1428	  9.2487	   9.249	  55.345
 1107	  0.1424	  9.2575	   9.257	  55.395
 1108	  0.1428	  9.2662	   9.266	  55.445
 1109	  0.1432	  9.2737	   9.274	  55.495
 1110	  0.1424	  9.2825	   9.283	  55.545
 1111	  0.1424	  9.2913	   9.291	  55.595
 1112	  0.1432	  9.2987	   9.299	  55.645
 1113	  0.1432	  9.3075	   9.307	  55.695
 1114	  0.1444	  9.3162	   9.316	  55.745
 1115	  0.1432	  9.3250	   9.325	  55.795
 1116	  0.1428	  9.3325	   9.332	  55.845
 1117	  0.1436	  9.3412	   9.341	  55.895
 1118	  0.1432	  9.3500	   9.350	  55.945
 1119	  0.1436	  9.3575	   9.358	  55.995
 1120	  0.1440	  9.3663	   9.366	  56.045
 1121	  0.1436	  9.3750	   9.375	  56.095
 1122	  0.1444	  9.3825	   9.382	  56.145
 1123	  0.1444	  9.3912	   9.391	  56.195
 1124	  0.1440	  9.4000	   9.400	  56.245
 1125	  0.1440	  9.4075	   9.407	  56.295
 1126	  0.1440	  9.4163	   9.416	  56.345
 1127	  0.1440	  9.4250	   9.425	  56.395
 1128	  0.1444	  9.4325	   9.432	  56.445
 1129	  0.1444	  9.4412	   9.441	  56.495
 1130	  0.1440	  9.4500	   9.450	  56.545
 1131	  0.1444	  9.4587	   9.459	  56.595
 1132	  0.1444	  9.4662	   9.466	  56.645
 1133	  0.1452	  9.4750	   9.475	  56.695
 1134	  0.1448	  9.4837	   9.484	  56.745
 1135	  0.1448	  9.4913	   9.491	  56.795
 1136	  0.1452	  9.5000	   9.500	  56.845
 1137	  0.1456	  9.5087	   9.509	  56.895
 1138	  0.1464	  9.5162	   9.516	  56.945
 1139	  0.1460	  9.5250	   9.525	  56.995
 1140	  0.1456	  9.5337	   9.534	  57.045
 1141	  0.1456	  9.5413	   9.541	  57.095
 1142	  0.1456	  9.5500	   9.550	  57.145
 1143	  0.1448	  9.5575	   9.557	  57.195
 1144	  0.1456	  9.5662	   9.566	  57.245
 1145	  0.1464	  9.5750	   9.575	  57.295
 1146	  0.1460	  9.5837	   9.584	  57.345
 1147	  0.1464	  9.5912	   9.591	  57.395
 1148	  0.1460	  9.6000	   9.600	  57.445
 1149	  0.1464	  9.6087	   9.609	  57.495
 1150	  0.1468	  9.6175	   9.617	  57.545
 1151	  0.1468	  9.6250	   9.625	  57.595
 1152	  0.1468	  9.6337	   9.634	  57.645
 1153	  0.1464	  9.6425	   9.642	  57.695
 1154	  0.1464	  9.6500	   9.650	  57.745
 1155	  0.1468	  9.6587	   9.659	  57.795
 1156	  0.1468	  9.6675	   9.667	  57.845
 1157	  0.1468	  9.6750	   9.675	  57.895
 1158	  0.1468	  9.6838	   9.684	  57.945
 1159	  0.1472	  9.6925	   9.693	  57.995
 1160	  0.1476	  9.7000	   9.700	  58.045
 1161	  0.1476	  9.7087	   9.709	  58.095
 1162	  0.1472	  9.7175	   9.717	  58.145
 1163	  0.1476	  9.7250	   9.725	  58.195
 1164	  0.1488	  9.7337	   9.734	  58.245
 1165	  0.1476	  9.7425	   9.742	  58.295
 1166	  0.1480	  9.7512	   9.751	  58.345
 1167	  0.1480	  9.7587	   9.759	  58.395
 1168	  0.1480	  9.7675	   9.767	  58.445
 1169	  0.1484	  9.7762	   9.776	  58.495
 1170	  0.1488	  9.7837	   9.784	  58.545
 1171	  0.1488	  9.7925	   9.792	  58.595
 1172	  0.1492	  9.8000	   9.800	  58.645
 1173	  0.1488	  9.8088	   9.809	  58.695
 1174	  0.1484	  9.8175	   9.818	  58.745
 1175	  0.1488	  9.8250	   9.825	  58.795
 1176	  0.1492	  9.8337	   9.834	  58.845
 1177	  0.1496	  9.8425	   9.842	  58.895
 1178	  0.1496	  9.8512	   9.851	  58.945
 1179	  0.1496	  9.8587	   9.859	  58.995
 1180	  0.1488	  9.8675	   9.867	  59.045
 1181	  0.1492	  9.8762	   9.876	  59.095
 1182	  0.1496	  9.8837	   9.884	  59.145
 1183	  0.1492	  9.8925	   9.892	  59.195
 1184	  0.1496	  9.9012	   9.901	  59.245
 1185	  0.1496	  9.9087	   9.909	  59.295
 1186	  0.1492	  9.9175	   9.917	  59.345
 1187	  0.1492	  9.9262	   9.926	  59.395
 1188	  0.1492	  9.9338	   9.934	  59.445
 1189	  0.1492	  9.9425	   9.943	  59.495
 1190	  0.1492	  9.9513	   9.951	  59.545
 1191	  0.1492	  9.9587	   9.959	  59.595
 1192	  0.1496	  9.9675	   9.967	  59.645
 1193	  0.1504	  9.9762	   9.976	  59.695
 1194	  0.1500	  9.9850	   9.985	  59.745
 1195	  0.1500	  9.9925	   9.992	  59.795
 1196	  0.1492	 10.0012	  10.001	  59.845
 1197	  0.1508	 10.0100	  10.010	  59.895
 1198	  0.1508	 10.0175	  10.017	  59.945
 1199	  0.1500	 10.0262	  10.026	  59.995
 1200	  0.1508	 10.0350	  10.035	  60.045
 1201	  0.1504	 10.0425	  10.042	  60.095
 1202	  0.1508	 10.0512	  10.051	  60.145
 1203	  0.1504	 10.0600	  10.060	  60.195
 1204	  0.1508	 10.0675	  10.068	  60.245
 1205	  0.1512	 10.0763	  10.076	  60.295
 1206	  0.1512	 10.0850	  10.085	  60.345
 1207	  0.1512	 10.0925	  10.092	  60.395
 1208	  0.1508	 10.1012	  10.101	  60.445
 1209	  0.1504	 10.1100	  10.110	  60.495
 1210	  0.1516	 10.1175	  10.117	  60.545
 1211	  0.1512	 10.1262	  10.126	  60.595
 1212	  0.1520	 10.1350	  10.135	  60.645
 1213	  0.1516	 10.1425	  10.142	  60.695
 1214	  0.1512	 10.1512	  10.151	  60.745
 1215	  0.1512	 10.1600	  10.160	  60.795
 1216	  0.1520	 10.1687	  10.169	  60.845
 1217	  0.1524	 10.1762	  10.176	  60.895
 1218	  0.1516	 10.1850	  10.185	  60.945
 1219	  0.1520	 10.1937	  10.194	  60.995
 1220	  0.1520	 10.2013	  10.201	  61.045
 1221	  0.1520	 10.2100	  10.210	  61.095
 1222	  0.1516	 10.2188	  10.219	  61.145
 1223	  0.1516	 10.2262	  10.226	  61.195
 1224	  0.1516	 10.2350	  10.235	  61.245
 1225	  0.1520	 10.2437	  10.244	  61.295
 1226	  0.1520	 10.2512	  10.251	  61.345
 1227	  0.1528	 10.2600	  10.260	  61.395
 1228	  0.1528	 10.2688	  10.269	  61.445
 1229	  0.1524	 10.2762	  10.276	  61.495
 1230	  0.1520	 10.2850	  10.285	  61.545
 1231	  0.1524	 10.2937	  10.294	  61.595
 1232	  0.1524	 10.3012	  10.301	  61.645
 1233	  0.1528	 10.3100	  10.310	  61.695
 1234	  0.1528	 10.3187	  10.319	  61.745
 1235	  0.1536	 10.3275	  10.327	  61.795
 1236	  0.1532	 10.3350	  10.335	  61.845
 1237	  0.1532	 10.3438	  10.344	  61.895
 1238	  0.1536	 10.3512	  10.351	  61.945
 1239	  0.1540	 10.3600	  10.360	  61.995
 1240	  0.1536	 10.3687	  10.369	  62.045
 1241	  0.1540	 10.3775	  10.377	  62.095
 1242	  0.1540	 10.3850	  10.385	  62.145
 1243	  0.1540	 10.3938	  10.394	  62.195
 1244	  0.1536	 10.4025	  10.403	  62.245
 1245	  0.1540	 10.4100	  10.410	  62.295
 1246	  0.1536	 10.4187	  10.419	  62.345
 1247	  0.1536	 10.4275	  10.427	  62.395
 1248	  0.1536	 10.4350	  10.435	  62.445
 1249	  0.1540	 10.4437	  10.444	  62.495
 1250	  0.1540	 10.4525	  10.452	  62.545
 1251	  0.1544	 10.4612	  10.461	  62.595
 1252	  0.1540	 10.4688	  10.469	  62.645
 1253	  0.1540	 10.4775	  10.477	  62.695
 1254	  0.1552	 10.4862	  10.486	  62.745
 1255	  0.1552	 10.4937	  10.494	  62.795
 1256	  0.1552	 10.5025	  10.502	  62.845
 1257	  0.1552	 10.5112	  10.511	  62.895
 1258	  0.1556	 10.5188	  10.519	  62.945
 1259	  0.1556	 10.5275	  10.528	  62.995
 1260	  0.1548	 10.5363	  10.536	  63.045
 1261	  0.1548	 10.5437	  10.544	  63.095
 1262	  0.1552	 10.5525	  10.552	  63.145
 1263	  0.1552	 10.5612	  10.561	  63.195
 1264	  0.1552	 10.5700	  10.570	  63.245
 1265	  0.1556	 10.5775	  10.577	  63.295
 1266	  0.1556	 10.5862	  10.586	  63.345
 1267	  0.1548	 10.5950	  10.595	  63.395
 1268	  0.1560	 10.6025	  10.602	  63.445
 1269	  0.1556	 10.6112	  10.611	  63.495
 1270	  0.1560	 10.6200	  10.620	  63.545
 1271	  0.1556	 10.6275	  10.627	  63.595
 1272	  0.1564	 10.6362	  10.636	  63.645
 1273	  0.1556	 10.6438	  10.644	  63.695
 1274	  0.1564	 10.6525	  10.653	  63.745
 1275	  0.1564	 10.6613	  10.661	  63.795
 1276	  0.1560	 10.6700	  10.670	  63.845
 1277	  0.1556	 10.6775	  10.677	  63.895
 1278	  0.1556	 10.6862	  10.686	  63.945
 1279	  0.1560	 10.6950	  10.695	  63.995
 1280	  0.1556	 10.7037	  10.704	  64.045
 1281	  0.1564	 10.7112	  10.711	  64.095
 1282	  0.1564	 10.7200	  10.720	  64.145
 1283	  0.1560	 10.7275	  10.727	  64.195
 1284	  0.1568	 10.7362	  10.736	  64.245
 1285	  0.1568	 10.7450	  10.745	  64.295
 1286	  0.1572	 10.7537	  10.754	  64.345
 1287	  0.1576	 10.7612	  10.761	  64.395
 1288	  0.1576	 10.7700	  10.770	  64.445
 1289	  0.1572	 10.7787	  10.779	  64.495
 1290	  0.1568	 10.7863	  10.786	  64.545
 1291	  0.1572	 10.7950	  10.795	  64.595
 1292	  0.1576	 10.8038	  10.804	  64.645
 1293	  0.1572	 10.8112	  10.811	  64.695
 1294	  0.1572	 10.8200	  10.820	  64.745
 1295	  0.1576	 10.8287	  10.829	  64.795
 1296	  0.1580	 10.8375	  10.837	  64.845
 1297	  0.1580	 10.8450	  10.845	  64.895
 1298	  0.1572	 10.8538	  10.854	  64.945
 1299	  0.1572	 10.8625	  10.863	  64.995
 1300	  0.1572	 10.8700	  10.870	  65.045
 1301	  0.1576	 10.8787	  10.879	  65.095
 1302	  0.1584	 10.8875	  10.887	  65.145
 1303	  0.1576	 10.8950	  10.895	  65.195
 1304	  0.1584	 10.9037	  10.904	  65.245
 1305	  0.1588	 10.9125	  10.912	  65.295
 1306	  0.1584	 10.9200	  10.920	  65.345
 1307	  0.1592	 10.9288	  10.929	  65.395
 1308	  0.1592	 10.9375	  10.938	  65.445
 1309	  0.1592	 10.9462	  10.946	  65.495
 1310	  0.1596	 10.9537	  10.954	  65.545
 1311	  0.1596	 10.9625	  10.962	  65.595
 1312	  0.1596	 10.9712	  10.971	  65.645
 1313	  0.1596	 10.9788	  10.979	  65.695
 1314	  0.1596	 10.9875	  10.988	  65.745
 1315	  0.1592	 10.9963	  10.996	  65.795
 1316	  0.1596	 11.0050	  11.005	  65.845
 1317	  0.1600	 11.0125	  11.012	  65.895
 1318	  0.1600	 11.0212	  11.021	  65.945
 1319	  0.1600	 11.0300	  11.030	  65.995
 1320	  0.1596	 11.0375	  11.037	  66.045
 1321	  0.1600	 11.0462	  11.046	  66.095
 1322	  0.1596	 11.0550	  11.055	  66.145
 1323	  0.1592	 11.0625	  11.062	  66.195
 1324	  0.1592	 11.0712	  11.071	  66.245
 1325	  0.1596	 11.0800	  11.080	  66.295
 1326	  0.1604	 11.0875	  11.087	  66.345
 1327	  0.1604	 11.0962	  11.096	  66.395
 1328	  0.1608	 11.1050	  11.105	  66.445
 1329	  0.1608	 11.1125	  11.113	  66.495
 1330	  0.1604	 11.1213	  11.121	  66.545
 1331	  0.1604	 11.1300	  11.130	  66.595
 1332	  0.1612	 11.1375	  11.137	  66.645
 1333	  0.1608	 11.1462	  11.146	  66.695
 1334	  0.1608	 11.1550	  11.155	  66.745
 1335	  0.1612	 11.1637	  11.164	  66.795
 1336	  0.1612	 11.1712	  11.171	  66.845
 1337	  0.1616	 11.1800	  11.180	  66.895
 1338	  0.1616	 11.1887	  11.189	  66.945
 1339	  0.1616	 11.1962	  11.196	  66.995
 1340	  0.1620	 11.2050	  11.205	  67.045
 1341	  0.1620	 11.2137	  11.214	  67.095
 1342	  0.1616	 11.2212	  11.221	  67.145
 1343	  0.1616	 11.2300	  11.230	  67.195
 1344	  0.1620	 11.2387	  11.239	  67.245
 1345	  0.1616	 11.2475	  11.247	  67.295
 1346	  0.1620	 11.2550	  11.255	  67.345
 1347	  0.1620	 11.2638	  11.264	  67.395
 1348	  0.1624	 11.2725	  11.273	  67.445
 1349	  0.1620	 11.2812	  11.281	  67.495
 1350	  0.1624	 11.2887	  11.289	  67.545
 1351	  0.1624	 11.2975	  11.297	  67.595
 1352	  0.1624	 11.3062	  11.306	  67.645
 1353	  0.1616	 11.3137	  11.314	  67.695
 1354	  0.1620	 11.3225	  11.322	  67.745
 1355	  0.1624	 11.3313	  11.331	  67.795
 1356	  0.1628	 11.3387	  11.339	  67.845
 1357	  0.1624	 11.3475	  11.347	  67.895
 1358	  0.1624	 11.3550	  11.355	  67.945
 1359	  0.1620	 11.3637	  11.364	  67.995
 1360	  0.1620	 11.3725	  11.372	  68.045
 1361	  0.1620	 11.3812	  11.381	  68.095
 1362	  0.1624	 11.3888	  11.389	  68.145
 1363	  0.1624	 11.3975	  11.398	  68.195
 1364	  0.1620	 11.4062	  11.406	  68.245
 1365	  0.1620	 11.4137	  11.414	  68.295
 1366	  0.1628	 11.4225	  11.422	  68.345
 1367	  0.1624	 11.4312	  11.431	  68.395
 1368	  0.1616	 11.4400	  11.440	  68.445
 1369	  0.1616	 11.4475	  11.447	  68.495
 1370	  0.1624	 11.4563	  11.456	  68.545
 1371	  0.1624	 11.4650	  11.465	  68.595
 1372	  0.1624	 11.4738	  11.474	  68.645
 1373	  0.1620	 11.4812	  11.481	  68.695
 1374	  0.1624	 11.4900	  11.490	  68.745
 1375	  0.1628	 11.4987	  11.499	  68.795
 1376	  0.1624	 11.5062	  11.506	  68.845
 1377	  0.1620	 11.5150	  11.515	  68.895
 1378	  0.1624	 11.5237	  11.524	  68.945
 1379	  0.1628	 11.5325	  11.532	  68.995
 1380	  0.1632	 11.5400	  11.540	  69.045
 1381	  0.1628	 11.5487	  11.549	  69.095
 1382	  0.1628	 11.5575	  11.557	  69.145
 1383	  0.1636	 11.5650	  11.565	  69.195
 1384	  0.1628	 11.5737	  11.574	  69.245
 1385	  0.1628	 11.5825	  11.582	  69.295
 1386	  0.1628	 11.5900	  11.590	  69.345
 1387	  0.1632	 11.5988	  11.599	  69.395
 1388	  0.1628	 11.6075	  11.608	  69.445
 1389	  0.1628	 11.6163	  11.616	  69.495
 1390	  0.1640	 11.6237	  11.624	  69.545
 1391	  0.1632	 11.6325	  11.632	  69.595
 1392	  0.1636	 11.6412	  11.641	  69.645
 1393	  0.1640	 11.6487	  11.649	  69.695
 1394	  0.1636	 11.6575	  11.657	  69.745
 1395	  0.1632	 11.6662	  11.666	  69.795
 1396	  0.1628	 11.6737	  11.674	  69.845
 1397	  0.1632	 11.6825	  11.682	  69.895
 1398	  0.1636	 11.6912	  11.691	  69.945
 1399	  0.1636	 11.7000	  11.700	  69.995
 1400	  0.1644	 11.7075	  11.707	  70.045
 1401	  0.1644	 11.7162	  11.716	  70.095
 1402	  0.1644	 11.7250	  11.725	  70.145
 1403	  0.1644	 11.7325	  11.733	  70.195
 1404	  0.1644	 11.7413	  11.741	  70.245
 1405	  0.1636	 11.7500	  11.750	  70.295
 1406	  0.1640	 11.7575	  11.757	  70.345
 1407	  0.1640	 11.7662	  11.766	  70.395
 1408	  0.1640	 11.7750	  11.775	  70.445
 1409	  0.1648	 11.7837	  11.784	  70.495
 1410	  0.1652	 11.7912	  11.791	  70.545
 1411	  0.1648	 11.8000	  11.800	  70.595
 1412	  0.1648	 11.8088	  11.809	  70.645
 1413	  0.1652	 11.8162	  11.816	  70.695
 1414	  0.1648	 11.8250	  11.825	  70.745
 1415	  0.1652	 11.8337	  11.834	  70.795
 1416	  0.1656	 11.8412	  11.841	  70.845
 1417	  0.1656	 11.8500	  11.850	  70.895
 1418	  0.1660	 11.8587	  11.859	  70.945
 1419	  0.1660	 11.8675	  11.867	  70.995
 1420	  0.1656	 11.8750	  11.875	  71.045
 1421	  0.1656	 11.8837	  11.884	  71.095
 1422	  0.1656	 11.8925	  11.892	  71.145
 1423	  0.1656	 11.9000	  11.900	  71.195
 1424	  0.1656	 11.9087	  11.909	  71.245
 1425	  0.1660	 11.9175	  11.917	  71.295
 1426	  0.1664	 11.9250	  11.925	  71.345
 1427	  0.1660	 11.9338	  11.934	  71.395
 1428	  0.1664	 11.9425	  11.943	  71.445
 1429	  0.1668	 11.9513	  11.951	  71.495
 1430	  0.1668	 11.9587	  11.959	  71.545
 1431	  0.1672	 11.9675	  11.967	  71.595
 1432	  0.1660	 11.9762	  11.976	  71.645
 1433	  0.1660	 11.9837	  11.984	  71.695
 1434	  0.1668	 11.9925	  11.992	  71.745
 1435	  0.1668	 12.0012	  12.001	  71.795
 1436	  0.1672	 12.0087	  12.009	  71.845
 1437	  0.1672	 12.0175	  12.017	  71.895
 1438	  0.1676	 12.0262	  12.026	  71.945
 1439	  0.1676	 12.0350	  12.035	  71.995
 1440	  0.1672	 12.0425	  12.042	  72.045
 1441	  0.1672	 12.0512	  12.051	  72.095
 1442	  0.1676	 12.0600	  12.060	  72.145
 1443	  0.1680	 12.0675	  12.068	  72.195
 1444	  0.1680	 12.0763	  12.076	  72.245
 1445	  0.1680	 12.0850	  12.085	  72.295
 1446	  0.1684	 12.0938	  12.094	  72.345
 1447	  0.1680	 12.1012	  12.101	  72.395
 1448	  0.1684	 12.1100	  12.110	  72.445
 1449	  0.1680	 12.1187	  12.119	  72.495
 1450	  0.1680	 12.1262	  12.126	  72.545
 1451	  0.1680	 12.1350	  12.135	  72.595
 1452	  0.1684	 12.1438	  12.144	  72.645
 1453	  0.1684	 12.1512	  12.151	  72.695
 1454	  0.1688	 12.1600	  12.160	  72.745
 1455	  0.1688	 12.1687	  12.169	  72.795
 1456	  0.1684	 12.1762	  12.176	  72.845
 1457	  0.1684	 12.1850	  12.185	  72.895
 1458	  0.1688	 12.1937	  12.194	  72.945
 1459	  0.1692	 12.2013	  12.201	  72.995
 1460	  0.1688	 12.2100	  12.210	  73.045
 1461	  0.1692	 12.2188	  12.219	  73.095
 1462	  0.1692	 12.2262	  12.226	  73.145
 1463	  0.1696	 12.2350	  12.235	  73.195
 1464	  0.1696	 12.2437	  12.244	  73.245
 1465	  0.1692	 12.2525	  12.252	  73.295
 1466	  0.1688	 12.2600	  12.260	  73.345
 1467	  0.1692	 12.2688	  12.269	  73.395
 1468	  0.1696	 12.2775	  12.278	  73.445
 1469	  0.1692	 12.2850	  12.285	  73.495
 1470	  0.1692	 12.2937	  12.294	  73.545
 1471	  0.1692	 12.3025	  12.302	  73.595
 1472	  0.1696	 12.3100	  12.310	  73.645
 1473	  0.1692	 12.3187	  12.319	  73.695
 1474	  0.1696	 12.3275	  12.327	  73.745
 1475	  0.1696	 12.3350	  12.335	  73.795
 1476	  0.1696	 12.3438	  12.344	  73.845
 1477	  0.1704	 12.3525	  12.352	  73.895
 1478	  0.1704	 12.3600	  12.360	  73.945
 1479	  0.1704	 12.3687	  12.369	  73.995
 1480	  0.1700	 12.3775	  12.377	  74.045
 1481	  0.1696	 12.3862	  12.386	  74.095
 1482	  0.1696	 12.3938	  12.394	  74.145
 1483	  0.1700	 12.4025	  12.403	  74.195
 1484	  0.1700	 12.4113	  12.411	  74.245
 1485	  0.1700	 12.4187	  12.419	  74.295
 1486	  0.1700	 12.4275	  12.427	  74.345
 1487	  0.1704	 12.4362	  12.436	  74.395
 1488	  0.1700	 12.4437	  12.444	  74.445
 1489	  0.1704	 12.4525	  12.452	  74.495
 1490	  0.1704	 12.4612	  12.461	  74.545
 1491	  0.1700	 12.4688	  12.469	  74.595
 1492	  0.1696	 12.4775	  12.477	  74.645
 1493	  0.1704	 12.4862	  12.486	  74.695
 1494	  0.1704	 12.4950	  12.495	  74.745
 1495	  0.1708	 12.5025	  12.502	  74.795
 1496	  0.1708	 12.5112	  12.511	  74.845
 1497	  0.1708	 12.5200	  12.520	  74.895
 1498	  0.1708	 12.5275	  12.528	  74.945
 1499	  0.1704	 12.5363	  12.536	  74.995
 1500	  0.1704	 12.5450	  12.545	  75.045
 1501	  0.1708	 12.5538	  12.554	  75.095
 1502	  0.1712	 12.5612	  12.561	  75.145
 1503	  0.1704	 12.5700	  12.570	  75.195
 1504	  0.1712	 12.5787	  12.579	  75.245
 1505	  0.1708	 12.5862	  12.586	  75.295
 1506	  0.1712	 12.5950	  12.595	  75.345
 1507	  0.1712	 12.6037	  12.604	  75.395
 1508	  0.1716	 12.6112	  12.611	  75.445
 1509	  0.1716	 12.6200	  12.620	  75.495
 1510	  0.1712	 12.6287	  12.629	  75.545
 1511	  0.1716	 12.6362	  12.636	  75.595
 1512	  0.1716	 12.6450	  12.645	  75.645
 1513	  0.1712	 12.6537	  12.654	  75.695
 1514	  0.1708	 12.6613	  12.661	  75.745
 1515	  0.1712	 12.6700	  12.670	  75.795
 1516	  0.1716	 12.6788	  12.679	  75.845
 1517	  0.1716	 12.6862	  12.686	  75.895
 1518	  0.1720	 12.6950	  12.695	  75.945
 1519	  0.1720	 12.7037	  12.704	  75.995
 1520	  0.1720	 12.7112	  12.711	  76.045
 1521	  0.1724	 12.7200	  12.720	  76.095
 1522	  0.1720	 12.7275	  12.727	  76.145
 1523	  0.1720	 12.7362	  12.736	  76.195
 1524	  0.1724	 12.7450	  12.745	  76.245
 1525	  0.1724	 12.7525	  12.752	  76.295
 1526	  0.1728	 12.7612	  12.761	  76.345
 1527	  0.1728	 12.7700	  12.770	  76.395
 1528	  0.1724	 12.7775	  12.778	  76.445
 1529	  0.1732	 12.7863	  12.786	  76.495
 1530	  0.1728	 12.7950	  12.795	  76.545
 1531	  0.1724	 12.8038	  12.804	  76.595
 1532	  0.1728	 12.8112	  12.811	  76.645
 1533	  0.1728	 12.8200	  12.820	  76.695
 1534	  0.1724	 12.8287	  12.829	  76.745
 1535	  0.1724	 12.8362	  12.836	  76.795
 1536	  0.1732	 12.8450	  12.845	  76.845
 1537	  0.1728	 12.8537	  12.854	  76.895
 1538	  0.1724	 12.8612	  12.861	  76.945
 1539	  0.1724	 12.8700	  12.870	  76.995
 1540	  0.1724	 12.8787	  12.879	  77.045
 1541	  0.1728	 12.8862	  12.886	  77.095
 1542	  0.1728	 12.8950	  12.895	  77.145
 1543	  0.1724	 12.9037	  12.904	  77.195
 1544	  0.1736	 12.9113	  12.911	  77.245
 1545	  0.1724	 12.9200	  12.920	  77.295
 1546	  0.1732	 12.9288	  12.929	  77.345
 1547	  0.1724	 12.9362	  12.936	  77.395
 1548	  0.1732	 12.9450	  12.945	  77.445
 1549	  0.1728	 12.9537	  12.954	  77.495
 1550	  0.1736	 12.9612	  12.961	  77.545
 1551	  0.1740	 12.9700	  12.970	  77.595
 1552	  0.1740	 12.9787	  12.979	  77.645
 1553	  0.1744	 12.9862	  12.986	  77.695
 1554	  0.1740	 12.9950	  12.995	  77.745
 1555	  0.1736	 13.0037	  13.004	  77.795
 1556	  0.1740	 13.0112	  13.011	  77.845
 1557	  0.1740	 13.0200	  13.020	  77.895
 1558	  0.1736	 13.0275	  13.028	  77.945
 1559	  0.1744	 13.0363	  13.036	  77.995
 1560	  0.1744	 13.0450	  13.045	  78.045
 1561	  0.1740	 13.0538	  13.054	  78.095
 1562	  0.1744	 13.0612	  13.061	  78.145
 1563	  0.1740	 13.0700	  13.070	  78.195
 1564	  0.1736	 13.0787	  13.079	  78.245
 1565	  0.1736	 13.0862	  13.086	  78.295
 1566	  0.1736	 13.0950	  13.095	  78.345
 1567	  0.1736	 13.1037	  13.104	  78.395
 1568	  0.1740	 13.1112	  13.111	  78.445
 1569	  0.1740	 13.1200	  13.120	  78.495
 1570	  0.1744	 13.1287	  13.129	  78.545
 1571	  0.1744	 13.1362	  13.136	  78.595
 1572	  0.1748	 13.1450	  13.145	  78.645
 1573	  0.1748	 13.1537	  13.154	  78.695
 1574	  0.1748	 13.1613	  13.161	  78.745
 1575	  0.1748	 13.1700	  13.170	  78.795
 1576	  0.1740	 13.1788	  13.179	  78.845
 1577	  0.1748	 13.1862	  13.186	  78.895
 1578	  0.1752	 13.1950	  13.195	  78.945
 1579	  0.1752	 13.2037	  13.204	  78.995
 1580	  0.1752	 13.2125	  13.212	  79.045
 1581	  0.1756	 13.2200	  13.220	  79.095
 1582	  0.1752	 13.2287	  13.229	  79.145
 1583	  0.1748	 13.2375	  13.237	  79.195
 1584	  0.1752	 13.2450	  13.245	  79.245
 1585	  0.1752	 13.2537	  13.254	  79.295
 1586	  0.1748	 13.2625	  13.262	  79.345
 1587	  0.1752	 13.2700	  13.270	  79.395
 1588	  0.1752	 13.2787	  13.279	  79.445
 1589	  0.1760	 13.2875	  13.287	  79.495
 1590	  0.1760	 13.2950	  13.295	  79.545
 1591	  0.1760	 13.3038	  13.304	  79.595
 1592	  0.1760	 13.3125	  13.312	  79.645
 1593	  0.1752	 13.3200	  13.320	  79.695
 1594	  0.1752	 13.3287	  13.329	  79.745
 1595	  0.1752	 13.3375	  13.337	  79.795
 1596	  0.1756	 13.3462	  13.346	  79.845
 1597	  0.1756	 13.3537	  13.354	  79.895
 1598	  0.1760	 13.3625	  13.362	  79.945
 1599	  0.1756	 13.3713	  13.371	  79.995
 1600	  0.1756	 13.3800	  13.380	  80.045
 1601	  0.1756	 13.3875	  13.387	  80.095
 1602	  0.1752	 13.3962	  13.396	  80.145
 1603	  0.1752	 13.4037	  13.404	  80.195
 1604	  0.1764	 13.4125	  13.412	  80.245
 1605	  0.1764	 13.4212	  13.421	  80.295
 1606	  0.1760	 13.4288	  13.429	  80.345
 1607	  0.1764	 13.4375	  13.438	  80.395
 1608	  0.1768	 13.4462	  13.446	  80.445
 1609	  0.1760	 13.4550	  13.455	  80.495
 1610	  0.1764	 13.4625	  13.462	  80.545
 1611	  0.1764	 13.4712	  13.471	  80.595
 1612	  0.1768	 13.4800	  13.480	  80.645
 1613	  0.1764	 13.4875	  13.487	  80.695
 1614	  0.1768	 13.4963	  13.496	  80.745
 1615	  0.1764	 13.5050	  13.505	  80.795
 1616	  0.1768	 13.5125	  13.512	  80.845
 1617	  0.1772	 13.5212	  13.521	  80.895
 1618	  0.1768	 13.5300	  13.530	  80.945
 1619	  0.1776	 13.5375	  13.537	  80.995
 1620	  0.1772	 13.5462	  13.546	  81.045
 1621	  0.1772	 13.5550	  13.555	  81.095
 1622	  0.1772	 13.5625	  13.562	  81.145
 1623	  0.1772	 13.5712	  13.571	  81.195
 1624	  0.1772	 13.5800	  13.580	  81.245
 1625	  0.1772	 13.5875	  13.587	  81.295
 1626	  0.1776	 13.5962	  13.596	  81.345
 1627	  0.1772	 13.6050	  13.605	  81.395
 1628	  0.1780	 13.6137	  13.614	  81.445
 1629	  0.1780	 13.6213	  13.621	  81.495
 1630	  0.1784	 13.6300	  13.630	  81.545
 1631	  0.1780	 13.6388	  13.639	  81.595
 1632	  0.1788	 13.6462	  13.646	  81.645
 1633	  0.1784	 13.6550	  13.655	  81.695
 1634	  0.1784	 13.6637	  13.664	  81.745
 1635	  0.1784	 13.6725	  13.672	  81.795
 1636	  0.1784	 13.6800	  13.680	  81.845
 1637	  0.1772	 13.6887	  13.689	  81.895
 1638	  0.1772	 13.6975	  13.697	  81.945
 1639	  0.1772	 13.7050	  13.705	  81.995
 1640	  0.1776	 13.7137	  13.714	  82.045
 1641	  0.1772	 13.7225	  13.722	  82.095
 1642	  0.1776	 13.7300	  13.730	  82.145
 1643	  0.1780	 13.7387	  13.739	  82.195
 1644	  0.1780	 13.7475	  13.747	  82.245
 1645	  0.1784	 13.7562	  13.756	  82.295
 1646	  0.1788	 13.7638	  13.764	  82.345
 1647	  0.1780	 13.7725	  13.773	  82.395
 1648	  0.1772	 13.7812	  13.781	  82.445
 1649	  0.1784	 13.7887	  13.789	  82.495
 1650	  0.1784	 13.7975	  13.797	  82.545
 1651	  0.1784	 13.8062	  13.806	  82.595
 1652	  0.1788	 13.8137	  13.814	  82.645
 1653	  0.1784	 13.8225	  13.822	  82.695
 1654	  0.1776	 13.8312	  13.831	  82.745
 1655	  0.1784	 13.8387	  13.839	  82.795
 1656	  0.1792	 13.8475	  13.847	  82.845
 1657	  0.1796	 13.8562	  13.856	  82.895
 1658	  0.1792	 13.8637	  13.864	  82.945
 1659	  0.1788	 13.8725	  13.872	  82.995
 1660	  0.1788	 13.8812	  13.881	  83.045
 1661	  0.1796	 13.8900	  13.890	  83.095
 1662	  0.1796	 13.8975	  13.898	  83.145
 1663	  0.1792	 13.9050	  13.905	  83.195
 1664	  0.1796	 13.9137	  13.914	  83.245
 1665	  0.1800	 13.9212	  13.921	  83.295
 1666	  0.1800	 13.9300	  13.930	  83.345
 1667	  0.1800	 13.9387	  13.939	  83.395
 1668	  0.1796	 13.9462	  13.946	  83.445
 1669	  0.1796	 13.9550	  13.955	  83.495
 1670	  0.1796	 13.9625	  13.962	  83.545
 1671	  0.1796	 13.9712	  13.971	  83.595
 1672	  0.1796	 13.9800	  13.980	  83.645
 1673	  0.1800	 13.9875	  13.987	  83.695
 1674	  0.1800	 13.9963	  13.996	  83.745
 1675	  0.1796	 14.0050	  14.005	  83.795
 1676	  0.1800	 14.0125	  14.012	  83.845
 1677	  0.1808	 14.0212	  14.021	  83.895
 1678	  0.1800	 14.0300	  14.030	  83.945
 1679	  0.1800	 14.0387	  14.039	  83.995
 1680	  0.1800	 14.0462	  14.046	  84.045
 1681	  0.1796	 14.0550	  14.055	  84.095
 1682	  0.1800	 14.0637	  14.064	  84.145
 1683	  0.1800	 14.0712	  14.071	  84.195
 1684	  0.1804	 14.0800	  14.080	  84.245
 1685	  0.1800	 14.0887	  14.089	  84.295
 1686	  0.1804	 14.0962	  14.096	  84.345
 1687	  0.1808	 14.1050	  14.105	  84.395
 1688	  0.1808	 14.1125	  14.112	  84.445
 1689	  0.1804	 14.1213	  14.121	  84.495
 1690	  0.1800	 14.1300	  14.130	  84.545
 1691	  0.1800	 14.1375	  14.137	  84.595
 1692	  0.1808	 14.1462	  14.146	  84.645
 1693	  0.1808	 14.1550	  14.155	  84.695
 1694	  0.1812	 14.1625	  14.162	  84.745
 1695	  0.1812	 14.1712	  14.171	  84.795
 1696	  0.1816	 14.1800	  14.180	  84.845
 1697	  0.1816	 14.1875	  14.188	  84.895
 1698	  0.1820	 14.1962	  14.196	  84.945
 1699	  0.1816	 14.2050	  14.205	  84.995
 1700	  0.1812	 14.2125	  14.212	  85.045
 1701	  0.1816	 14.2212	  14.221	  85.095
 1702	  0.1816	 14.2300	  14.230	  85.145
 1703	  0.1812	 14.2375	  14.237	  85.195
 1704	  0.1816	 14.2463	  14.246	  85.245
 1705	  0.1812	 14.2550	  14.255	  85.295
 1706	  0.1812	 14.2625	  14.262	  85.345
 1707	  0.1812	 14.2712	  14.271	  85.395
 1708	  0.1812	 14.2787	  14.279	  85.445
 1709	  0.1820	 14.2875	  14.287	  85.495
 1710	  0.1820	 14.2962	  14.296	  85.545
 1711	  0.1816	 14.3038	  14.304	  85.595
 1712	  0.1816	 14.3125	  14.312	  85.645
 1713	  0.1824	 14.3212	  14.321	  85.695
 1714	  0.1820	 14.3287	  14.329	  85.745
 1715	  0.1820	 14.3375	  14.337	  85.795
 1716	  0.1820	 14.3462	  14.346	  85.845
 1717	  0.1820	 14.3537	  14.354	  85.895
 1718	  0.1820	 14.3625	  14.362	  85.945
 1719	  0.1824	 14.3713	  14.371	  85.995
 1720	  0.1824	 14.3787	  14.379	  86.045
 1721	  0.1824	 14.3875	  14.387	  86.095
 1722	  0.1824	 14.3962	  14.396	  86.145
 1723	  0.1824	 14.4037	  14.404	  86.195
 1724	  0.1828	 14.4125	  14.412	  86.245
 1725	  0.1824	 14.4212	  14.421	  86.295
 1726	  0.1828	 14.4288	  14.429	  86.345
 1727	  0.1832	 14.4375	  14.438	  86.395
 1728	  0.1828	 14.4462	  14.446	  86.445
 1729	  0.1828	 14.4550	  14.455	  86.495
 1730	  0.1824	 14.4625	  14.462	  86.545
 1731	  0.1828	 14.4712	  14.471	  86.595
 1732	  0.1828	 14.4787	  14.479	  86.645
 1733	  0.1828	 14.4875	  14.487	  86.695
 1734	  0.1828	 14.4963	  14.496	  86.745
 1735	  0.1832	 14.5037	  14.504	  86.795
 1736	  0.1836	 14.5125	  14.512	  86.845
 1737	  0.1832	 14.5212	  14.521	  86.895
 1738	  0.1836	 14.5287	  14.529	  86.945
 1739	  0.1836	 14.5375	  14.537	  86.995
 1740	  0.1832	 14.5462	  14.546	  87.045
 1741	  0.1828	 14.5538	  14.554	  87.095
 1742	  0.1832	 14.5625	  14.562	  87.145
 1743	  0.1836	 14.5712	  14.571	  87.195
 1744	  0.1836	 14.5800	  14.580	  87.245
 1745	  0.1828	 14.5875	  14.587	  87.295
 1746	  0.1836	 14.5962	  14.596	  87.345
 1747	  0.1836	 14.6050	  14.605	  87.395
 1748	  0.1832	 14.6125	  14.612	  87.445
 1749	  0.1836	 14.6212	  14.621	  87.495
 1750	  0.1832	 14.6300	  14.630	  87.545
 1751	  0.1836	 14.6375	  14.637	  87.595
 1752	  0.1844	 14.6462	  14.646	  87.645
 1753	  0.1836	 14.6550	  14.655	  87.695
 1754	  0.1844	 14.6625	  14.662	  87.745
 1755	  0.1844	 14.6712	  14.671	  87.795
 1756	  0.1840	 14.6800	  14.680	  87.845
 1757	  0.1840	 14.6875	  14.688	  87.895
 1758	  0.1840	 14.6962	  14.696	  87.945
 1759	  0.1844	 14.7050	  14.705	  87.995
 1760	  0.1840	 14.7125	  14.712	  88.045
 1761	  0.1840	 14.7212	  14.721	  88.095
 1762	  0.1844	 14.7300	  14.730	  88.145
 1763	  0.1844	 14.7375	  14.737	  88.195
 1764	  0.1848	 14.7462	  14.746	  88.245
 1765	  0.1848	 14.7550	  14.755	  88.295
 1766	  0.1844	 14.7638	  14.764	  88.345
 1767	  0.1848	 14.7712	  14.771	  88.395
 1768	  0.1848	 14.7800	  14.780	  88.445
 1769	  0.1852	 14.7887	  14.789	  88.495
 1770	  0.1848	 14.7962	  14.796	  88.545
 1771	  0.1844	 14.8050	  14.805	  88.595
 1772	  0.1848	 14.8125	  14.812	  88.645
 1773	  0.1852	 14.8212	  14.821	  88.695
 1774	  0.1852	 14.8300	  14.830	  88.745
 1775	  0.1848	 14.8387	  14.839	  88.795
 1776	  0.1844	 14.8462	  14.846	  88.845
 1777	  0.1848	 14.8550	  14.855	  88.895
 1778	  0.1848	 14.8637	  14.864	  88.945
 1779	  0.1848	 14.8725	  14.872	  88.995
 1780	  0.1844	 14.8800	  14.880	  89.045
 1781	  0.1848	 14.8888	  14.889	  89.095
 1782	  0.1844	 14.8962	  14.896	  89.145
 1783	  0.1848	 14.9050	  14.905	  89.195
 1784	  0.1852	 14.9137	  14.914	  89.245
 1785	  0.1848	 14.9225	  14.922	  89.295
 1786	  0.1844	 14.9300	  14.930	  89.345
 1787	  0.1848	 14.9387	  14.939	  89.395
 1788	  0.1844	 14.9462	  14.946	  89.445
 1789	  0.1852	 14.9550	  14.955	  89.495
 1790	  0.1856	 14.9637	  14.964	  89.545
 1791	  0.1856	 14.9725	  14.972	  89.595
 1792	  0.1856	 14.9800	  14.980	  89.645
 1793	  0.1852	 14.9887	  14.989	  89.695
 1794	  0.1856	 14.9975	  14.997	  89.745
 1795	  0.1860	 15.0050	  15.005	  89.795
 1796	  0.1860	 15.0138	  15.014	  89.845
 1797	  0.1856	 15.0225	  15.023	  89.895
 1798	  0.1860	 15.0300	  15.030	  89.945
 1799	  0.1860	 15.0387	  15.039	  89.995
 1800	  0.1864	 15.0475	  15.047	  90.045
 1801	  0.1864	 15.0550	  15.055	  90.095
 1802	  0.1860	 15.0637	  15.064	  90.145
 1803	  0.1860	 15.0725	  15.072	  90.195
 1804	  0.1860	 15.0812	  15.081	  90.245
 1805	  0.1856	 15.0887	  15.089	  90.295
 1806	  0.1860	 15.0975	  15.097	  90.345
 1807	  0.1852	 15.1062	  15.106	  90.395
 1808	  0.1856	 15.1137	  15.114	  90.445
 1809	  0.1856	 15.1225	  15.122	  90.495
 1810	  0.1852	 15.1312	  15.131	  90.545
 1811	  0.1864	 15.1388	  15.139	  90.595
 1812	  0.1864	 15.1475	  15.148	  90.645
 1813	  0.1864	 15.1562	  15.156	  90.695
 1814	  0.1864	 15.1650	  15.165	  90.745
 1815	  0.1864	 15.1725	  15.172	  90.795
 1816	  0.1864	 15.1812	  15.181	  90.845
 1817	  0.1864	 15.1900	  15.190	  90.895
 1818	  0.1864	 15.1975	  15.197	  90.945
 1819	  0.1864	 15.2062	  15.206	  90.995
 1820	  0.1864	 15.2137	  15.214	  91.045
 1821	  0.1864	 15.2225	  15.222	  91.095
 1822	  0.1864	 15.2312	  15.231	  91.145
 1823	  0.1864	 15.2387	  15.239	  91.195
 1824	  0.1864	 15.2475	  15.247	  91.245
 1825	  0.1868	 15.2562	  15.256	  91.295
 1826	  0.1864	 15.2650	  15.265	  91.345
 1827	  0.1864	 15.2725	  15.273	  91.395
 1828	  0.1868	 15.2812	  15.281	  91.445
 1829	  0.1868	 15.2900	  15.290	  91.495
 1830	  0.1868	 15.2987	  15.299	  91.545
 1831	  0.1872	 15.3062	  15.306	  91.595
 1832	  0.1868	 15.3150	  15.315	  91.645
 1833	  0.1868	 15.3225	  15.322	  91.695
 1834	  0.1868	 15.3312	  15.331	  91.745
 1835	  0.1868	 15.3400	  15.340	  91.795
 1836	  0.1868	 15.3488	  15.349	  91.845
 1837	  0.1864	 15.3562	  15.356	  91.895
 1838	  0.1864	 15.3650	  15.365	  91.945
 1839	  0.1868	 15.3737	  15.374	  91.995
 1840	  0.1872	 15.3812	  15.381	  92.045
 1841	  0.1868	 15.3900	  15.390	  92.095
 1842	  0.1876	 15.3987	  15.399	  92.145
 1843	  0.1876	 15.4062	  15.406	  92.195
 1844	  0.1868	 15.4150	  15.415	  92.245
 1845	  0.1876	 15.4237	  15.424	  92.295
 1846	  0.1876	 15.4325	  15.432	  92.345
 1847	  0.1876	 15.4400	  15.440	  92.395
 1848	  0.1876	 15.4487	  15.449	  92.445
 1849	  0.1876	 15.4575	  15.457	  92.495
 1850	  0.1884	 15.4662	  15.466	  92.545
 1851	  0.1884	 15.4738	  15.474	  92.595
 1852	  0.1876	 15.4825	  15.483	  92.645
 1853	  0.1872	 15.4900	  15.490	  92.695
 1854	  0.1876	 15.4987	  15.499	  92.745
 1855	  0.1880	 15.5075	  15.507	  92.795
 1856	  0.1876	 15.5150	  15.515	  92.845
 1857	  0.1876	 15.5237	  15.524	  92.895
 1858	  0.1880	 15.5325	  15.532	  92.945
 1859	  0.1880	 15.5412	  15.541	  92.995
 1860	  0.1884	 15.5487	  15.549	  93.045
 1861	  0.1884	 15.5575	  15.557	  93.095
 1862	  0.1888	 15.5662	  15.566	  93.145
 1863	  0.1880	 15.5737	  15.574	  93.195
 1864	  0.1888	 15.5825	  15.582	  93.245
 1865	  0.1884	 15.5912	  15.591	  93.295
 1866	  0.1888	 15.6000	  15.600	  93.345
 1867	  0.1892	 15.6075	  15.608	  93.395
 1868	  0.1884	 15.6163	  15.616	  93.445
 1869	  0.1884	 15.6250	  15.625	  93.495
 1870	  0.1888	 15.6325	  15.632	  93.545
 1871	  0.1888	 15.6412	  15.641	  93.595
 1872	  0.1888	 15.6500	  15.650	  93.645
 1873	  0.1888	 15.6575	  15.657	  93.695
 1874	  0.1892	 15.6662	  15.666	  93.745
 1875	  0.1884	 15.6750	  15.675	  93.795
 1876	  0.1880	 15.6837	  15.684	  93.845
 1877	  0.1888	 15.6912	  15.691	  93.895
 1878	  0.1888	 15.7000	  15.700	  93.945
 1879	  0.1892	 15.7087	  15.709	  93.995
 1880	  0.1888	 15.7162	  15.716	  94.045
 1881	  0.1892	 15.7250	  15.725	  94.095
 1882	  0.1900	 15.7337	  15.734	  94.145
 1883	  0.1900	 15.7425	  15.742	  94.195
 1884	  0.1896	 15.7500	  15.750	  94.245
 1885	  0.1900	 15.7587	  15.759	  94.295
 1886	  0.1900	 15.7662	  15.766	  94.345
 1887	  0.1892	 15.7750	  15.775	  94.395
 1888	  0.1892	 15.7837	  15.784	  94.445
 1889	  0.1892	 15.7925	  15.792	  94.495
 1890	  0.1884	 15.8000	  15.800	  94.545
 1891	  0.1896	 15.8087	  15.809	  94.595
 1892	  0.1892	 15.8175	  15.818	  94.645
 1893	  0.1896	 15.8250	  15.825	  94.695
 1894	  0.1896	 15.8337	  15.834	  94.745
 1895	  0.1892	 15.8425	  15.842	  94.795
 1896	  0.1892	 15.8512	  15.851	  94.845
 1897	  0.1896	 15.8587	  15.859	  94.895
 1898	  0.1892	 15.8675	  15.867	  94.945
 1899	  0.1888	 15.8762	  15.876	  94.995
 1900	  0.1892	 15.8850	  15.885	  95.045
 1901	  0.1892	 15.8925	  15.892	  95.095
 1902	  0.1888	 15.9012	  15.901	  95.145
 1903	  0.1896	 15.9100	  15.910	  95.195
 1904	  0.1892	 15.9175	  15.917	  95.245
 1905	  0.1896	 15.9262	  15.926	  95.295
 1906	  0.1892	 15.9350	  15.935	  95.345
 1907	  0.1900	 15.9425	  15.943	  95.395
 1908	  0.1900	 15.9513	  15.951	  95.445
 1909	  0.1904	 15.9600	  15.960	  95.495
 1910	  0.1904	 15.9675	  15.967	  95.545
 1911	  0.1896	 15.9762	  15.976	  95.595
 1912	  0.1900	 15.9850	  15.985	  95.645
 1913	  0.1900	 15.9937	  15.994	  95.695
 1914	  0.1900	 16.0012	  16.001	  95.745
 1915	  0.1900	 16.0100	  16.010	  95.795
 1916	  0.1900	 16.0187	  16.019	  95.845
 1917	  0.1896	 16.0262	  16.026	  95.895
 1918	  0.1896	 16.0350	  16.035	  95.945
 1919	  0.1896	 16.0437	  16.044	  95.995
 1920	  0.1896	 16.0525	  16.052	  96.045
 1921	  0.1904	 16.0600	  16.060	  96.095
 1922	  0.1904	 16.0688	  16.069	  96.145
 1923	  0.1904	 16.0763	  16.076	  96.195
 1924	  0.1908	 16.0850	  16.085	  96.245
 1925	  0.1908	 16.0938	  16.094	  96.295
 1926	  0.1908	 16.1025	  16.102	  96.345
 1927	  0.1908	 16.1100	  16.110	  96.395
 1928	  0.1912	 16.1187	  16.119	  96.445
 1929	  0.1904	 16.1275	  16.128	  96.495
 1930	  0.1908	 16.1350	  16.135	  96.545
 1931	  0.1908	 16.1437	  16.144	  96.595
 1932	  0.1900	 16.1525	  16.153	  96.645
 1933	  0.1904	 16.1600	  16.160	  96.695
 1934	  0.1912	 16.1687	  16.169	  96.745
 1935	  0.1908	 16.1775	  16.177	  96.795
 1936	  0.1912	 16.1862	  16.186	  96.845
 1937	  0.1908	 16.1938	  16.194	  96.895
 1938	  0.1904	 16.2025	  16.202	  96.945
 1939	  0.1908	 16.2113	  16.211	  96.995
 1940	  0.1904	 16.2188	  16.219	  97.045
 1941	  0.1908	 16.2275	  16.227	  97.095
 1942	  0.1908	 16.2362	  16.236	  97.145
 1943	  0.1908	 16.2437	  16.244	  97.195
 1944	  0.1912	 16.2525	  16.253	  97.245
 1945	  0.1916	 16.2612	  16.261	  97.295
 1946	  0.1912	 16.2700	  16.270	  97.345
 1947	  0.1912	 16.2775	  16.278	  97.395
 1948	  0.1908	 16.2862	  16.286	  97.445
 1949	  0.1908	 16.2950	  16.295	  97.495
 1950	  0.1912	 16.3025	  16.302	  97.545
 1951	  0.1908	 16.3112	  16.311	  97.595
 1952	  0.1916	 16.3200	  16.320	  97.645
 1953	  0.1912	 16.3275	  16.327	  97.695
 1954	  0.1912	 16.3363	  16.336	  97.745
 1955	  0.1912	 16.3450	  16.345	  97.795
 1956	  0.1916	 16.3525	  16.352	  97.845
 1957	  0.1916	 16.3612	  16.361	  97.895
 1958	  0.1916	 16.3700	  16.370	  97.945
 1959	  0.1916	 16.3787	  16.379	  97.995
 1960	  0.1912	 16.3862	  16.386	  98.045
 1961	  0.1912	 16.3950	  16.395	  98.095
 1962	  0.1912	 16.4037	  16.404	  98.145
 1963	  0.1916	 16.4112	  16.411	  98.195
 1964	  0.1920	 16.4200	  16.420	  98.245
 1965	  0.1920	 16.4287	  16.429	  98.295
 1966	  0.1916	 16.4362	  16.436	  98.345
 1967	  0.1916	 16.4450	  16.445	  98.395
 1968	  0.1916	 16.4537	  16.454	  98.445
 1969	  0.1916	 16.4625	  16.462	  98.495
 1970	  0.1920	 16.4700	  16.470	  98.545
 1971	  0.1920	 16.4788	  16.479	  98.595
 1972	  0.1924	 16.4862	  16.486	  98.645
 1973	  0.1916	 16.4950	  16.495	  98.695
 1974	  0.1920	 16.5037	  16.504	  98.745
 1975	  0.1924	 16.5125	  16.512	  98.795
 1976	  0.1928	 16.5200	  16.520	  98.845
 1977	  0.1920	 16.5287	  16.529	  98.895
 1978	  0.1920	 16.5375	  16.538	  98.945
 1979	  0.1920	 16.5462	  16.546	  98.995
 1980	  0.1924	 16.5537	  16.554	  99.045
 1981	  0.1924	 16.5625	  16.562	  99.095
 1982	  0.1928	 16.5712	  16.571	  99.145
 1983	  0.1920	 16.5787	  16.579	  99.195
 1984	  0.1920	 16.5875	  16.587	  99.245
 1985	  0.1924	 16.5963	  16.596	  99.295
 1986	  0.1924	 16.6038	  16.604	  99.345
 1987	  0.1924	 16.6125	  16.612	  99.395
 1988	  0.1928	 16.6213	  16.621	  99.445
 1989	  0.1928	 16.6287	  16.629	  99.495
 1990	  0.1924	 16.6375	  16.637	  99.545
 1991	  0.1932	 16.6462	  16.646	  99.595
 1992	  0.1936	 16.6537	  16.654	  99.645
 1993	  0.1932	 16.6625	  16.663	  99.695
 1994	  0.1932	 16.6712	  16.671	  99.745
 1995	  0.1936	 16.6800	  16.680	  99.795
 1996	  0.1940	 16.6875	  16.688	  99.845
 1997	  0.1940	 16.6962	  16.696	  99.895
 1998	  0.1940	 16.7050	  16.705	  99.945
 1999	  0.1940	 16.7125	  16.712	  99.995
 2000	  0.1944	 16.7213	  16.721	 100.045
 2001	  0.1944	 16.7300	  16.730	 100.095
 2002	  0.1940	 16.7375	  16.737	 100.145
 2003	  0.1948	 16.7463	  16.746	 100.195
 2004	  0.1944	 16.7550	  16.755	 100.245
 2005	  0.1940	 16.7638	  16.764	 100.295
 2006	  0.1940	 16.7712	  16.771	 100.345
 2007	  0.1940	 16.7800	  16.780	 100.395
 2008	  0.1948	 16.7887	  16.789	 100.445
 2009	  0.1948	 16.7962	  16.796	 100.495
 2010	  0.1952	 16.8050	  16.805	 100.545
 2011	  0.1944	 16.8137	  16.814	 100.595
 2012	  0.1952	 16.8212	  16.821	 100.645
 2013	  0.1952	 16.8300	  16.830	 100.695
 2014	  0.1952	 16.8387	  16.839	 100.745
 2015	  0.1944	 16.8450	  16.845	 100.795
 2016	  0.1952	 16.8538	  16.854	 100.845
 2017	  0.1948	 16.8625	  16.862	 100.895
 2018	  0.1948	 16.8700	  16.870	 100.945
 2019	  0.1948	 16.8787	  16.879	 100.995
 2020	  0.1952	 16.8875	  16.887	 101.045
 2021	  0.1952	 16.8950	  16.895	 101.095
 2022	  0.1956	 16.9037	  16.904	 101.145
 2023	  0.1956	 16.9125	  16.913	 101.195
 2024	  0.1956	 16.9212	  16.921	 101.245
 2025	  0.1948	 16.9287	  16.929	 101.295
 2026	  0.1944	 16.9375	  16.938	 101.345
 2027	  0.1948	 16.9462	  16.946	 101.395
 2028	  0.1948	 16.9537	  16.954	 101.445
 2029	  0.1948	 16.9625	  16.962	 101.495
 2030	  0.1948	 16.9713	  16.971	 101.545
 2031	  0.1952	 16.9788	  16.979	 101.595
 2032	  0.1956	 16.9875	  16.987	 101.645
 2033	  0.1952	 16.9963	  16.996	 101.695
 2034	  0.1948	 17.0050	  17.005	 101.745
 2035	  0.1948	 17.0125	  17.012	 101.795
 2036	  0.1948	 17.0212	  17.021	 101.845
 2037	  0.1952	 17.0287	  17.029	 101.895
 2038	  0.1960	 17.0375	  17.038	 101.945
 2039	  0.1960	 17.0462	  17.046	 101.995
 2040	  0.1964	 17.0537	  17.054	 102.045
 2041	  0.1964	 17.0625	  17.062	 102.095
 2042	  0.1960	 17.0712	  17.071	 102.145
 2043	  0.1960	 17.0787	  17.079	 102.195
 2044	  0.1960	 17.0875	  17.087	 102.245
 2045	  0.1952	 17.0963	  17.096	 102.295
 2046	  0.1952	 17.1050	  17.105	 102.345
 2047	  0.1952	 17.1125	  17.112	 102.395
 2048	  0.1956	 17.1213	  17.121	 102.445
 2049	  0.1956	 17.1300	  17.130	 102.495
 2050	  0.1964	 17.1375	  17.137	 102.545
 2051	  0.1956	 17.1462	  17.146	 102.595
 2052	  0.1960	 17.1550	  17.155	 102.645
 2053	  0.1960	 17.1625	  17.163	 102.695
 2054	  0.1952	 17.1712	  17.171	 102.745
 2055	  0.1960	 17.1800	  17.180	 102.795
 2056	  0.1960	 17.1875	  17.188	 102.845
 2057	  0.1968	 17.1962	  17.196	 102.895
 2058	  0.1964	 17.2050	  17.205	 102.945
 2059	  0.1972	 17.2125	  17.212	 102.995
 2060	  0.1972	 17.2213	  17.221	 103.045
 2061	  0.1968	 17.2300	  17.230	 103.095
 2062	  0.1968	 17.2388	  17.239	 103.145
 2063	  0.1968	 17.2463	  17.246	 103.195
 2064	  0.1964	 17.2550	  17.255	 103.245
 2065	  0.1964	 17.2638	  17.264	 103.295
 2066	  0.1972	 17.2712	  17.271	 103.345
 2067	  0.1968	 17.2800	  17.280	 103.395
 2068	  0.1968	 17.2875	  17.288	 103.445
 2069	  0.1960	 17.2962	  17.296	 103.495
 2070	  0.1964	 17.3050	  17.305	 103.545
 2071	  0.1968	 17.3125	  17.312	 103.595
 2072	  0.1972	 17.3212	  17.321	 103.645
 2073	  0.1968	 17.3300	  17.330	 103.695
 2074	  0.1968	 17.3375	  17.337	 103.745
 2075	  0.1972	 17.3463	  17.346	 103.795
 2076	  0.1968	 17.3550	  17.355	 103.845
 2077	  0.1964	 17.3625	  17.362	 103.895
 2078	  0.1968	 17.3713	  17.371	 103.945
 2079	  0.1968	 17.3800	  17.380	 103.995
 2080	  0.1964	 17.3888	  17.389	 104.045
 2081	  0.1968	 17.3962	  17.396	 104.095
 2082	  0.1968	 17.4050	  17.405	 104.145
 2083	  0.1972	 17.4125	  17.413	 104.195
 2084	  0.1972	 17.4212	  17.421	 104.245
 2085	  0.1968	 17.4300	  17.430	 104.295
 2086	  0.1968	 17.4375	  17.438	 104.345
 2087	  0.1972	 17.4462	  17.446	 104.395
 2088	  0.1968	 17.4550	  17.455	 104.445
 2089	  0.1968	 17.4625	  17.462	 104.495
 2090	  0.1972	 17.4713	  17.471	 104.545
 2091	  0.1972	 17.4800	  17.480	 104.595
 2092	  0.1968	 17.4875	  17.487	 104.645
 2093	  0.1976	 17.4963	  17.496	 104.695
 2094	  0.1972	 17.5050	  17.505	 104.745
 2095	  0.1972	 17.5138	  17.514	 104.795
 2096	  0.1972	 17.5212	  17.521	 104.845
 2097	  0.1972	 17.5300	  17.530	 104.895
 2098	  0.1976	 17.5387	  17.539	 104.945
 2099	  0.1980	 17.5462	  17.546	 104.995
 2100	  0.1976	 17.5550	  17.555	 105.045
 2101	  0.1976	 17.5637	  17.564	 105.095
 2102	  0.1976	 17.5712	  17.571	 105.145
 2103	  0.1972	 17.5800	  17.580	 105.195
 2104	  0.1972	 17.5887	  17.589	 105.245
 2105	  0.1976	 17.5963	  17.596	 105.295
 2106	  0.1968	 17.6050	  17.605	 105.345
 2107	  0.1968	 17.6125	  17.612	 105.395
 2108	  0.1972	 17.6213	  17.621	 105.445
 2109	  0.1972	 17.6300	  17.630	 105.495
 2110	  0.1976	 17.6388	  17.639	 105.545
 2111	  0.1980	 17.6462	  17.646	 105.595
 2112	  0.1976	 17.6550	  17.655	 105.645
 2113	  0.1980	 17.6625	  17.663	 105.695
 2114	  0.1976	 17.6712	  17.671	 105.745
 2115	  0.1976	 17.6800	  17.680	 105.795
 2116	  0.1976	 17.6887	  17.689	 105.845
 2117	  0.1976	 17.6962	  17.696	 105.895
 2118	  0.1976	 17.7050	  17.705	 105.945
 2119	  0.1980	 17.7137	  17.714	 105.995
 2120	  0.1984	 17.7213	  17.721	 106.045
 2121	  0.1984	 17.7300	  17.730	 106.095
 2122	  0.1980	 17.7375	  17.737	 106.145
 2123	  0.1980	 17.7463	  17.746	 106.195
 2124	  0.1984	 17.7550	  17.755	 106.245
 2125	  0.1984	 17.7638	  17.764	 106.295
 2126	  0.1984	 17.7712	  17.771	 106.345
 2127	  0.1976	 17.7800	  17.780	 106.395
 2128	  0.1976	 17.7887	  17.789	 106.445
 2129	  0.1976	 17.7962	  17.796	 106.495
 2130	  0.1980	 17.8050	  17.805	 106.545
 2131	  0.1972	 17.8137	  17.814	 106.595
 2132	  0.1968	 17.8212	  17.821	 106.645
 2133	  0.1976	 17.8300	  17.830	 106.695
 2134	  0.1980	 17.8387	  17.839	 106.745
 2135	  0.1976	 17.8463	  17.846	 106.795
 2136	  0.1976	 17.8550	  17.855	 106.845
 2137	  0.1976	 17.8638	  17.864	 106.895
 2138	  0.1972	 17.8713	  17.871	 106.945
 2139	  0.1980	 17.8800	  17.880	 106.995
 2140	  0.1980	 17.8888	  17.889	 107.045
 2141	  0.1980	 17.8962	  17.896	 107.095
 2142	  0.1980	 17.9050	  17.905	 107.145
 2143	  0.1984	 17.9137	  17.914	 107.195
 2144	  0.1980	 17.9212	  17.921	 107.245
 2145	  0.1980	 17.9300	  17.930	 107.295
 2146	  0.1984	 17.9387	  17.939	 107.345
 2147	  0.1984	 17.9462	  17.946	 107.395
 2148	  0.1988	 17.9550	  17.955	 107.445
 2149	  0.1988	 17.9637	  17.964	 107.495
 2150	  0.1988	 17.9725	  17.972	 107.545
 2151	  0.1992	 17.9800	  17.980	 107.595
 2152	  0.1992	 17.9888	  17.989	 107.645
 2153	  0.1988	 17.9975	  17.997	 107.695
 2154	  0.1988	 18.0050	  18.005	 107.745
 2155	  0.1992	 18.0138	  18.014	 107.795
 2156	  0.1988	 18.0225	  18.022	 107.845
 2157	  0.1992	 18.0300	  18.030	 107.895
 2158	  0.1996	 18.0387	  18.039	 107.945
 2159	  0.2000	 18.0475	  18.047	 107.995
 2160	  0.1996	 18.0550	  18.055	 108.045
 2161	  0.1996	 18.0637	  18.064	 108.095
 2162	  0.1996	 18.0712	  18.071	 108.145
 2163	  0.2000	 18.0800	  18.080	 108.195
 2164	  0.2000	 18.0887	  18.089	 108.245
 2165	  0.1996	 18.0975	  18.097	 108.295
 2166	  0.2000	 18.1050	  18.105	 108.345
 2167	  0.2000	 18.1138	  18.114	 108.395
 2168	  0.1996	 18.1213	  18.121	 108.445
 2169	  0.1996	 18.1300	  18.130	 108.495
 2170	  0.1996	 18.1388	  18.139	 108.545
 2171	  0.1996	 18.1462	  18.146	 108.595
 2172	  0.2000	 18.1550	  18.155	 108.645
 2173	  0.2004	 18.1637	  18.164	 108.695
 2174	  0.1996	 18.1712	  18.171	 108.745
 2175	  0.2004	 18.1800	  18.180	 108.795
 2176	  0.2004	 18.1887	  18.189	 108.845
 2177	  0.1996	 18.1962	  18.196	 108.895
 2178	  0.2004	 18.2050	  18.205	 108.945
 2179	  0.2004	 18.2137	  18.214	 108.995
 2180	  0.2000	 18.2213	  18.221	 109.045
 2181	  0.2004	 18.2300	  18.230	 109.095
 2182	  0.2004	 18.2388	  18.239	 109.145
 2183	  0.2000	 18.2463	  18.246	 109.195
 2184	  0.2000	 18.2550	  18.255	 109.245
 2185	  0.2004	 18.2638	  18.264	 109.295
 2186	  0.2004	 18.2712	  18.271	 109.345
 2187	  0.2004	 18.2800	  18.280	 109.395
 2188	  0.2004	 18.2887	  18.289	 109.445
 2189	  0.2000	 18.2962	  18.296	 109.495
 2190	  0.2004	 18.3050	  18.305	 109.545
 2191	  0.2008	 18.3137	  18.314	 109.595
 2192	  0.2004	 18.3212	  18.321	 109.645
 2193	  0.2000	 18.3300	  18.330	 109.695
 2194	  0.2000	 18.3387	  18.339	 109.745
 2195	  0.2004	 18.3463	  18.346	 109.795
 2196	  0.2004	 18.3550	  18.355	 109.845
 2197	  0.2004	 18.3638	  18.364	 109.895
 2198	  0.1996	 18.3713	  18.371	 109.945
 2199	  0.2000	 18.3800	  18.380	 109.995
 2200	  0.2000	 18.3888	  18.389	 110.045
 2201	  0.2008	 18.3962	  18.396	 110.095
 2202	  0.2008	 18.4050	  18.405	 110.145
 2203	  0.2004	 18.4125	  18.413	 110.195
 2204	  0.2008	 18.4212	  18.421	 110.245
 2205	  0.2012	 18.4300	  18.430	 110.295
 2206	  0.2008	 18.4375	  18.438	 110.345
 2207	  0.2012	 18.4462	  18.446	 110.395
 2208	  0.2016	 18.4550	  18.455	 110.445
 2209	  0.2016	 18.4625	  18.462	 110.495
 2210	  0.2012	 18.4713	  18.471	 110.545
 2211	  0.2008	 18.4800	  18.480	 110.595
 2212	  0.2012	 18.4888	  18.489	 110.645
 2213	  0.2012	 18.4963	  18.496	 110.695
 2214	  0.2012	 18.5050	  18.505	 110.745
 2215	  0.2012	 18.5138	  18.514	 110.795
 2216	  0.2012	 18.5212	  18.521	 110.845
 2217	  0.2012	 18.5300	  18.530	 110.895
 2218	  0.2016	 18.5387	  18.539	 110.945
 2219	  0.2008	 18.5462	  18.546	 110.995
 2220	  0.2008	 18.5550	  18.555	 111.045
 2221	  0.2016	 18.5637	  18.564	 111.095
 2222	  0.2020	 18.5712	  18.571	 111.145
 2223	  0.2016	 18.5800	  18.580	 111.195
 2224	  0.2012	 18.5887	  18.589	 111.245
 2225	  0.2016	 18.5975	  18.597	 111.295
 2226	  0.2016	 18.6050	  18.605	 111.345
 2227	  0.2016	 18.6138	  18.614	 111.395
 2228	  0.2012	 18.6225	  18.622	 111.445
 2229	  0.2016	 18.6300	  18.630	 111.495
 2230	  0.2012	 18.6388	  18.639	 111.545
 2231	  0.2008	 18.6475	  18.647	 111.595
 2232	  0.2008	 18.6550	  18.655	 111.645
 2233	  0.2012	 18.6637	  18.664	 111.695
 2234	  0.2012	 18.6725	  18.672	 111.745
 2235	  0.2016	 18.6812	  18.681	 111.795
 2236	  0.2016	 18.6887	  18.689	 111.845
 2237	  0.2012	 18.6975	  18.698	 111.895
 2238	  0.2012	 18.7050	  18.705	 111.945
 2239	  0.2016	 18.7137	  18.714	 111.995
 2240	  0.2020	 18.7225	  18.722	 112.045
 2241	  0.2020	 18.7312	  18.731	 112.095
 2242	  0.2012	 18.7388	  18.739	 112.145
 2243	  0.2012	 18.7475	  18.747	 112.195
 2244	  0.2008	 18.7563	  18.756	 112.245
 2245	  0.2020	 18.7650	  18.765	 112.295
 2246	  0.2020	 18.7725	  18.772	 112.345
 2247	  0.2020	 18.7812	  18.781	 112.395
 2248	  0.2016	 18.7900	  18.790	 112.445
 2249	  0.2020	 18.7975	  18.797	 112.495
 2250	  0.2020	 18.8062	  18.806	 112.545
 2251	  0.2020	 18.8150	  18.815	 112.595
 2252	  0.2024	 18.8225	  18.823	 112.645
 2253	  0.2020	 18.8312	  18.831	 112.695
 2254	  0.2020	 18.8400	  18.840	 112.745
 2255	  0.2020	 18.8475	  18.847	 112.795
 2256	  0.2020	 18.8562	  18.856	 112.845
 2257	  0.2020	 18.8650	  18.865	 112.895
 2258	  0.2024	 18.8725	  18.872	 112.945
 2259	  0.2028	 18.8813	  18.881	 112.995
 2260	  0.2020	 18.8900	  18.890	 113.045
 2261	  0.2024	 18.8975	  18.897	 113.095
 2262	  0.2016	 18.9062	  18.906	 113.145
 2263	  0.2020	 18.9150	  18.915	 113.195
 2264	  0.2020	 18.9237	  18.924	 113.245
 2265	  0.2020	 18.9312	  18.931	 113.295
 2266	  0.2024	 18.9400	  18.940	 113.345
 2267	  0.2024	 18.9475	  18.948	 113.395
 2268	  0.2024	 18.9562	  18.956	 113.445
 2269	  0.2024	 18.9650	  18.965	 113.495
 2270	  0.2024	 18.9737	  18.974	 113.545
 2271	  0.2032	 18.9812	  18.981	 113.595
 2272	  0.2024	 18.9900	  18.990	 113.645
 2273	  0.2024	 18.9987	  18.999	 113.695
 2274	  0.2024	 19.0075	  19.007	 113.745
 2275	  0.2028	 19.0150	  19.015	 113.795
 2276	  0.2032	 19.0238	  19.024	 113.845
 2277	  0.2024	 19.0325	  19.032	 113.895
 2278	  0.2032	 19.0400	  19.040	 113.945
 2279	  0.2028	 19.0487	  19.049	 113.995
 2280	  0.2024	 19.0575	  19.057	 114.045
 2281	  0.2028	 19.0650	  19.065	 114.095
 2282	  0.2028	 19.0737	  19.074	 114.145
 2283	  0.2024	 19.0825	  19.083	 114.195
 2284	  0.2028	 19.0912	  19.091	 114.245
 2285	  0.2028	 19.0987	  19.099	 114.295
 2286	  0.2024	 19.1075	  19.108	 114.345
 2287	  0.2020	 19.1162	  19.116	 114.395
 2288	  0.2024	 19.1237	  19.124	 114.445
 2289	  0.2024	 19.1325	  19.132	 114.495
 2290	  0.2028	 19.1412	  19.141	 114.545
 2291	  0.2032	 19.1488	  19.149	 114.595
 2292	  0.2032	 19.1575	  19.157	 114.645
 2293	  0.2044	 19.1663	  19.166	 114.695
 2294	  0.2036	 19.1750	  19.175	 114.745
 2295	  0.2032	 19.1825	  19.182	 114.795
 2296	  0.2032	 19.1912	  19.191	 114.845
 2297	  0.2028	 19.2000	  19.200	 114.895
 2298	  0.2028	 19.2075	  19.208	 114.945
 2299	  0.2032	 19.2162	  19.216	 114.995
 2300	  0.2028	 19.2250	  19.225	 115.045
 2301	  0.2032	 19.2325	  19.233	 115.095
 2302	  0.2028	 19.2412	  19.241	 115.145
 2303	  0.2032	 19.2500	  19.250	 115.195
 2304	  0.2028	 19.2575	  19.257	 115.245
 2305	  0.2032	 19.2662	  19.266	 115.295
 2306	  0.2036	 19.2750	  19.275	 115.345
 2307	  0.2040	 19.2825	  19.282	 115.395
 2308	  0.2040	 19.2913	  19.291	 115.445
 2309	  0.2036	 19.3000	  19.300	 115.495
 2310	  0.2040	 19.3088	  19.309	 115.545
 2311	  0.2040	 19.3162	  19.316	 115.595
 2312	  0.2036	 19.3250	  19.325	 115.645
 2313	  0.2040	 19.3337	  19.334	 115.695
 2314	  0.2044	 19.3425	  19.342	 115.745
 2315	  0.2044	 19.3500	  19.350	 115.795
 2316	  0.2044	 19.3587	  19.359	 115.845
 2317	  0.2044	 19.3675	  19.368	 115.895
 2318	  0.2044	 19.3750	  19.375	 115.945
 2319	  0.2052	 19.3837	  19.384	 115.995
 2320	  0.2044	 19.3925	  19.392	 116.045
 2321	  0.2048	 19.4012	  19.401	 116.095
 2322	  0.2044	 19.4087	  19.409	 116.145
 2323	  0.2044	 19.4175	  19.417	 116.195
 2324	  0.2048	 19.4263	  19.426	 116.245
 2325	  0.2048	 19.4338	  19.434	 116.295
 2326	  0.2040	 19.4425	  19.442	 116.345
 2327	  0.2044	 19.4513	  19.451	 116.395
 2328	  0.2048	 19.4587	  19.459	 116.445
 2329	  0.2044	 19.4675	  19.467	 116.495
 2330	  0.2048	 19.4762	  19.476	 116.545
 2331	  0.2048	 19.4850	  19.485	 116.595
 2332	  0.2052	 19.4925	  19.493	 116.645
 2333	  0.2048	 19.5012	  19.501	 116.695
 2334	  0.2048	 19.5100	  19.510	 116.745
 2335	  0.2048	 19.5175	  19.517	 116.795
 2336	  0.2052	 19.5262	  19.526	 116.845
 2337	  0.2048	 19.5350	  19.535	 116.895
 2338	  0.2044	 19.5425	  19.542	 116.945
 2339	  0.2052	 19.5513	  19.551	 116.995
 2340	  0.2056	 19.5600	  19.560	 117.045
 2341	  0.2056	 19.5688	  19.569	 117.095
 2342	  0.2056	 19.5763	  19.576	 117.145
 2343	  0.2056	 19.5850	  19.585	 117.195
 2344	  0.2060	 19.5938	  19.594	 117.245
 2345	  0.2056	 19.6025	  19.602	 117.295
 2346	  0.2048	 19.6112	  19.611	 117.345
 2347	  0.2052	 19.6187	  19.619	 117.395
 2348	  0.2056	 19.6275	  19.627	 117.445
 2349	  0.2052	 19.6362	  19.636	 117.495
 2350	  0.2056	 19.6437	  19.644	 117.545
 2351	  0.2056	 19.6525	  19.653	 117.595
 2352	  0.2048	 19.6612	  19.661	 117.645
 2353	  0.2048	 19.6687	  19.669	 117.695
 2354	  0.2056	 19.6775	  19.677	 117.745
 2355	  0.2052	 19.6862	  19.686	 117.795
 2356	  0.2048	 19.6938	  19.694	 117.845
 2357	  0.2048	 19.7025	  19.702	 117.895
 2358	  0.2052	 19.7113	  19.711	 117.945
 2359	  0.2048	 19.7200	  19.720	 117.995
 2360	  0.2048	 19.7275	  19.727	 118.045
 2361	  0.2056	 19.7362	  19.736	 118.095
 2362	  0.2056	 19.7450	  19.745	 118.145
 2363	  0.2052	 19.7525	  19.752	 118.195
 2364	  0.2052	 19.7612	  19.761	 118.245
 2365	  0.2052	 19.7700	  19.770	 118.295
 2366	  0.2052	 19.7787	  19.779	 118.345
 2367	  0.2056	 19.7850	  19.785	 118.395
 2368	  0.2052	 19.7937	  19.794	 118.445
 2369	  0.2056	 19.8025	  19.802	 118.495
 2370	  0.2060	 19.8100	  19.810	 118.545
 2371	  0.2056	 19.8188	  19.819	 118.595
 2372	  0.2048	 19.8275	  19.827	 118.645
 2373	  0.2056	 19.8363	  19.836	 118.695
 2374	  0.2056	 19.8438	  19.844	 118.745
 2375	  0.2056	 19.8525	  19.852	 118.795
 2376	  0.2056	 19.8612	  19.861	 118.845
 2377	  0.2056	 19.8700	  19.870	 118.895
 2378	  0.2052	 19.8775	  19.877	 118.945
 2379	  0.2052	 19.8862	  19.886	 118.995
 2380	  0.2056	 19.8950	  19.895	 119.045
 2381	  0.2052	 19.9025	  19.903	 119.095
 2382	  0.2052	 19.9112	  19.911	 119.145
 2383	  0.2056	 19.9200	  19.920	 119.195
 2384	  0.2060	 19.9287	  19.929	 119.245
 2385	  0.2064	 19.9362	  19.936	 119.295
 2386	  0.2064	 19.9450	  19.945	 119.345
 2387	  0.2064	 19.9537	  19.954	 119.395
 2388	  0.2068	 19.9613	  19.961	 119.445
 2389	  0.2060	 19.9700	  19.970	 119.495
 2390	  0.2060	 19.9788	  19.979	 119.545
 2391	  0.2060	 19.9862	  19.986	 119.595
 2392	  0.2060	 19.9950	  19.995	 119.645
 2393	  0.2064	 20.0037	  20.004	 119.695
 2394	  0.2060	 20.0125	  20.012	 119.745
 2395	  0.2064	 20.0200	  20.020	 119.795
 2396	  0.2068	 20.0287	  20.029	 119.845
 2397	  0.2064	 20.0375	  20.038	 119.895
 2398	  0.2068	 20.0462	  20.046	 119.945
 2399	  0.2060	 20.0537	  20.054	 119.995
 2400	  0.2056	 20.0625	  20.062	 120.045
 2401	  0.2060	 20.0712	  20.071	 120.095
 2402	  0.2060	 20.0800	  20.080	 120.145
 2403	  0.2060	 20.0875	  20.087	 120.195
 2404	  0.2072	 20.0962	  20.096	 120.245
 2405	  0.2060	 20.1050	  20.105	 120.295
 2406	  0.2060	 20.1125	  20.112	 120.345
 2407	  0.2068	 20.1213	  20.121	 120.395
 2408	  0.2072	 20.1300	  20.130	 120.445
 2409	  0.2068	 20.1388	  20.139	 120.495
 2410	  0.2064	 20.1462	  20.146	 120.545
 2411	  0.2064	 20.1550	  20.155	 120.595
 2412	  0.2068	 20.1637	  20.164	 120.645
 2413	  0.2072	 20.1712	  20.171	 120.695
 2414	  0.2072	 20.1800	  20.180	 120.745
 2415	  0.2064	 20.1887	  20.189	 120.795
 2416	  0.2064	 20.1962	  20.196	 120.845
 2417	  0.2064	 20.2050	  20.205	 120.895
 2418	  0.2064	 20.2137	  20.214	 120.945
 2419	  0.2064	 20.2212	  20.221	 120.995
 2420	  0.2072	 20.2300	  20.230	 121.045
 2421	  0.2076	 20.2388	  20.239	 121.095
 2422	  0.2072	 20.2463	  20.246	 121.145
 2423	  0.2072	 20.2550	  20.255	 121.195
 2424	  0.2072	 20.2638	  20.264	 121.245
 2425	  0.2068	 20.2725	  20.272	 121.295
 2426	  0.2072	 20.2800	  20.280	 121.345
 2427	  0.2072	 20.2887	  20.289	 121.395
 2428	  0.2068	 20.2975	  20.297	 121.445
 2429	  0.2068	 20.3062	  20.306	 121.495
 2430	  0.2068	 20.3137	  20.314	 121.545
 2431	  0.2068	 20.3225	  20.323	 121.595
 2432	  0.2076	 20.3312	  20.331	 121.645
 2433	  0.2076	 20.3387	  20.339	 121.695
 2434	  0.2072	 20.3475	  20.347	 121.745
 2435	  0.2072	 20.3562	  20.356	 121.795
 2436	  0.2072	 20.3638	  20.364	 121.845
 2437	  0.2084	 20.3725	  20.372	 121.895
 2438	  0.2080	 20.3813	  20.381	 121.945
 2439	  0.2084	 20.3900	  20.390	 121.995
 2440	  0.2084	 20.3975	  20.397	 122.045
 2441	  0.2084	 20.4062	  20.406	 122.095
 2442	  0.2080	 20.4150	  20.415	 122.145
 2443	  0.2088	 20.4225	  20.422	 122.195
 2444	  0.2084	 20.4312	  20.431	 122.245
 2445	  0.2080	 20.4400	  20.440	 122.295
 2446	  0.2084	 20.4487	  20.449	 122.345
 2447	  0.2080	 20.4562	  20.456	 122.395
 2448	  0.2084	 20.4650	  20.465	 122.445
 2449	  0.2080	 20.4737	  20.474	 122.495
 2450	  0.2084	 20.4812	  20.481	 122.545
 2451	  0.2088	 20.4900	  20.490	 122.595
 2452	  0.2084	 20.4987	  20.499	 122.645
 2453	  0.2088	 20.5063	  20.506	 122.695
 2454	  0.2080	 20.5150	  20.515	 122.745
 2455	  0.2080	 20.5238	  20.524	 122.795
 2456	  0.2076	 20.5312	  20.531	 122.845
 2457	  0.2080	 20.5400	  20.540	 122.895
 2458	  0.2080	 20.5487	  20.549	 122.945
 2459	  0.2076	 20.5575	  20.557	 122.995
 2460	  0.2084	 20.5650	  20.565	 123.045
 2461	  0.2084	 20.5737	  20.574	 123.095
 2462	  0.2084	 20.5825	  20.583	 123.145
 2463	  0.2084	 20.5900	  20.590	 123.195
 2464	  0.2088	 20.5987	  20.599	 123.245
 2465	  0.2084	 20.6075	  20.608	 123.295
 2466	  0.2092	 20.6150	  20.615	 123.345
 2467	  0.2088	 20.6237	  20.624	 123.395
 2468	  0.2084	 20.6325	  20.632	 123.445
 2469	  0.2092	 20.6400	  20.640	 123.495
 2470	  0.2088	 20.6488	  20.649	 123.545
 2471	  0.2088	 20.6575	  20.657	 123.595
 2472	  0.2084	 20.6650	  20.665	 123.645
 2473	  0.2084	 20.6737	  20.674	 123.695
 2474	  0.2084	 20.6825	  20.682	 123.745
 2475	  0.2084	 20.6900	  20.690	 123.795
 2476	  0.2084	 20.6987	  20.699	 123.845
 2477	  0.2080	 20.7075	  20.708	 123.895
 2478	  0.2080	 20.7150	  20.715	 123.945
 2479	  0.2084	 20.7237	  20.724	 123.995
 2480	  0.2088	 20.7325	  20.733	 124.045
 2481	  0.2088	 20.7400	  20.740	 124.095
 2482	  0.2084	 20.7487	  20.749	 124.145
 2483	  0.2088	 20.7575	  20.757	 124.195
 2484	  0.2088	 20.7650	  20.765	 124.245
 2485	  0.2092	 20.7738	  20.774	 124.295
 2486	  0.2092	 20.7825	  20.782	 124.345
 2487	  0.2088	 20.7900	  20.790	 124.395
 2488	  0.2096	 20.7987	  20.799	 124.445
 2489	  0.2088	 20.8075	  20.807	 124.495
 2490	  0.2088	 20.8162	  20.816	 124.545
 2491	  0.2084	 20.8237	  20.824	 124.595
 2492	  0.2084	 20.8325	  20.833	 124.645
 2493	  0.2084	 20.8412	  20.841	 124.695
 2494	  0.2084	 20.8500	  20.850	 124.745
 2495	  0.2084	 20.8575	  20.858	 124.795
 2496	  0.2088	 20.8662	  20.866	 124.845
 2497	  0.2092	 20.8750	  20.875	 124.895
 2498	  0.2088	 20.8825	  20.882	 124.945
 2499	  0.2088	 20.8912	  20.891	 124.995
 2500	  0.2088	 20.9000	  20.900	 125.045
 2501	  0.2092	 20.9075	  20.907	 125.095
 2502	  0.2096	 20.9163	  20.916	 125.145
 2503	  0.2092	 20.9250	  20.925	 125.195
 2504	  0.2088	 20.9325	  20.932	 125.245
 2505	  0.2084	 20.9412	  20.941	 125.295
 2506	  0.2084	 20.9500	  20.950	 125.345
 2507	  0.2088	 20.9575	  20.958	 125.395
 2508	  0.2080	 20.9662	  20.966	 125.445
 2509	  0.2084	 20.9750	  20.975	 125.495
 2510	  0.2088	 20.9825	  20.983	 125.545
 2511	  0.2088	 20.9912	  20.991	 125.595
 2512	  0.2092	 21.0000	  21.000	 125.645
 2513	  0.2096	 21.0075	  21.007	 125.695
 2514	  0.2096	 21.0162	  21.016	 125.745
 2515	  0.2092	 21.0250	  21.025	 125.795
 2516	  0.2092	 21.0337	  21.034	 125.845
 2517	  0.2096	 21.0413	  21.041	 125.895
 2518	  0.2100	 21.0500	  21.050	 125.945
 2519	  0.2104	 21.0588	  21.059	 125.995
 2520	  0.2100	 21.0662	  21.066	 126.045
 2521	  0.2100	 21.0750	  21.075	 126.095
 2522	  0.2100	 21.0825	  21.083	 126.145
 2523	  0.2100	 21.0912	  21.091	 126.195
 2524	  0.2100	 21.1000	  21.100	 126.245
 2525	  0.2100	 21.1087	  21.109	 126.295
 2526	  0.2104	 21.1162	  21.116	 126.345
 2527	  0.2100	 21.1250	  21.125	 126.395
 2528	  0.2100	 21.1337	  21.134	 126.445
 2529	  0.2100	 21.1425	  21.142	 126.495
 2530	  0.2100	 21.1500	  21.150	 126.545
 2531	  0.2104	 21.1587	  21.159	 126.595
 2532	  0.2100	 21.1675	  21.167	 126.645
 2533	  0.2092	 21.1750	  21.175	 126.695
 2534	  0.2100	 21.1838	  21.184	 126.745
 2535	  0.2100	 21.1925	  21.192	 126.795
 2536	  0.2100	 21.2000	  21.200	 126.845
 2537	  0.2100	 21.2087	  21.209	 126.895
 2538	  0.2096	 21.2162	  21.216	 126.945
 2539	  0.2096	 21.2250	  21.225	 126.995
 2540	  0.2096	 21.2337	  21.234	 127.045
 2541	  0.2100	 21.2425	  21.243	 127.095
 2542	  0.2096	 21.2500	  21.250	 127.145
 2543	  0.2100	 21.2587	  21.259	 127.195
 2544	  0.2100	 21.2675	  21.267	 127.245
 2545	  0.2104	 21.2750	  21.275	 127.295
 2546	  0.2096	 21.2837	  21.284	 127.345
 2547	  0.2096	 21.2925	  21.292	 127.395
 2548	  0.2096	 21.3000	  21.300	 127.445
 2549	  0.2108	 21.3088	  21.309	 127.495
 2550	  0.2100	 21.3175	  21.317	 127.545
 2551	  0.2104	 21.3250	  21.325	 127.595
 2552	  0.2108	 21.3337	  21.334	 127.645
 2553	  0.2108	 21.3412	  21.341	 127.695
 2554	  0.2100	 21.3500	  21.350	 127.745
 2555	  0.2100	 21.3587	  21.359	 127.795
 2556	  0.2108	 21.3675	  21.368	 127.845
 2557	  0.2100	 21.3750	  21.375	 127.895
 2558	  0.2108	 21.3837	  21.384	 127.945
 2559	  0.2104	 21.3925	  21.392	 127.995
 2560	  0.2108	 21.4000	  21.400	 128.045
 2561	  0.2104	 21.4087	  21.409	 128.095
 2562	  0.2104	 21.4175	  21.417	 128.145
 2563	  0.2104	 21.4250	  21.425	 128.195
 2564	  0.2104	 21.4338	  21.434	 128.245
 2565	  0.2100	 21.4425	  21.442	 128.295
 2566	  0.2108	 21.4500	  21.450	 128.345
 2567	  0.2104	 21.4587	  21.459	 128.395
 2568	  0.2112	 21.4675	  21.467	 128.445
 2569	  0.2104	 21.4750	  21.475	 128.495
 2570	  0.2100	 21.4837	  21.484	 128.545
 2571	  0.2108	 21.4925	  21.493	 128.595
 2572	  0.2108	 21.5000	  21.500	 128.645
 2573	  0.2104	 21.5087	  21.509	 128.695
 2574	  0.2104	 21.5175	  21.517	 128.745
 2575	  0.2120	 21.5250	  21.525	 128.795
 2576	  0.2116	 21.5337	  21.534	 128.845
 2577	  0.2108	 21.5425	  21.542	 128.895
 2578	  0.2112	 21.5500	  21.550	 128.945
 2579	  0.2108	 21.5588	  21.559	 128.995
 2580	  0.2112	 21.5675	  21.567	 129.045
 2581	  0.2108	 21.5750	  21.575	 129.095
 2582	  0.2112	 21.5837	  21.584	 129.145
 2583	  0.2112	 21.5925	  21.592	 129.195
 2584	  0.2108	 21.6000	  21.600	 129.245
 2585	  0.2108	 21.6087	  21.609	 129.295
 2586	  0.2116	 21.6175	  21.618	 129.345
 2587	  0.2112	 21.6250	  21.625	 129.395
 2588	  0.2112	 21.6337	  21.634	 129.445
 2589	  0.2112	 21.6425	  21.642	 129.495
 2590	  0.2116	 21.6500	  21.650	 129.545
 2591	  0.2116	 21.6587	  21.659	 129.595
 2592	  0.2112	 21.6675	  21.667	 129.645
 2593	  0.2116	 21.6750	  21.675	 129.695
 2594	  0.2116	 21.6838	  21.684	 129.745
 2595	  0.2116	 21.6925	  21.692	 129.795
 2596	  0.2120	 21.7000	  21.700	 129.845
 2597	  0.2120	 21.7087	  21.709	 129.895
 2598	  0.2120	 21.7175	  21.717	 129.945
 2599	  0.2116	 21.7250	  21.725	 129.995
 2600	  0.2116	 21.7337	  21.734	 130.045
 2601	  0.2112	 21.7425	  21.743	 130.095
 2602	  0.2120	 21.7500	  21.750	 130.145
 2603	  0.2116	 21.7587	  21.759	 130.195
 2604	  0.2120	 21.7675	  21.767	 130.245
 2605	  0.2116	 21.7750	  21.775	 130.295
 2606	  0.2120	 21.7837	  21.784	 130.345
 2607	  0.2128	 21.7925	  21.792	 130.395
 2608	  0.2124	 21.8000	  21.800	 130.445
 2609	  0.2124	 21.8088	  21.809	 130.495
 2610	  0.2124	 21.8175	  21.817	 130.545
 2611	  0.2124	 21.8250	  21.825	 130.595
 2612	  0.2136	 21.8337	  21.834	 130.645
 2613	  0.2128	 21.8425	  21.842	 130.695
 2614	  0.2128	 21.8500	  21.850	 130.745
 2615	  0.2136	 21.8587	  21.859	 130.795
 2616	  0.2132	 21.8675	  21.868	 130.845
 2617	  0.2124	 21.8750	  21.875	 130.895
 2618	  0.2124	 21.8837	  21.884	 130.945
 2619	  0.2128	 21.8925	  21.892	 130.995
 2620	  0.2124	 21.9000	  21.900	 131.045
 2621	  0.2128	 21.9087	  21.909	 131.095
 2622	  0.2124	 21.9175	  21.917	 131.145
 2623	  0.2120	 21.9250	  21.925	 131.195
 2624	  0.2128	 21.9338	  21.934	 131.245
 2625	  0.2124	 21.9425	  21.942	 131.295
 2626	  0.2124	 21.9500	  21.950	 131.345
 2627	  0.2124	 21.9587	  21.959	 131.395
 2628	  0.2120	 21.9675	  21.967	 131.445
 2629	  0.2124	 21.9750	  21.975	 131.495
 2630	  0.2128	 21.9837	  21.984	 131.545
 2631	  0.2124	 21.9925	  21.993	 131.595
 2632	  0.2132	 22.0000	  22.000	 131.645
 2633	  0.2132	 22.0087	  22.009	 131.695
 2634	  0.2132	 22.0175	  22.017	 131.745
 2635	  0.2128	 22.0250	  22.025	 131.795
 2636	  0.2124	 22.0337	  22.034	 131.845
 2637	  0.2128	 22.0413	  22.041	 131.895
 2638	  0.2124	 22.0500	  22.050	 131.945
 2639	  0.2124	 22.0588	  22.059	 131.995
 2640	  0.2128	 22.0675	  22.067	 132.045
 2641	  0.2124	 22.0750	  22.075	 132.095
 2642	  0.2124	 22.0837	  22.084	 132.145
 2643	  0.2128	 22.0925	  22.092	 132.195
 2644	  0.2128	 22.1000	  22.100	 132.245
 2645	  0.2132	 22.1087	  22.109	 132.295
 2646	  0.2132	 22.1175	  22.118	 132.345
 2647	  0.2128	 22.1250	  22.125	 132.395
 2648	  0.2132	 22.1337	  22.134	 132.445
 2649	  0.2124	 22.1425	  22.142	 132.495
 2650	  0.2124	 22.1500	  22.150	 132.545
 2651	  0.2124	 22.1587	  22.159	 132.595
 2652	  0.2128	 22.1675	  22.167	 132.645
 2653	  0.2132	 22.1750	  22.175	 132.695
 2654	  0.2132	 22.1838	  22.184	 132.745
 2655	  0.2128	 22.1925	  22.192	 132.795
 2656	  0.2136	 22.2000	  22.200	 132.845
 2657	  0.2132	 22.2087	  22.209	 132.895
 2658	  0.2128	 22.2175	  22.217	 132.945
 2659	  0.2128	 22.2250	  22.225	 132.995
 2660	  0.2128	 22.2337	  22.234	 133.045
 2661	  0.2136	 22.2425	  22.243	 133.095
 2662	  0.2136	 22.2500	  22.250	 133.145
 2663	  0.2128	 22.2587	  22.259	 133.195
 2664	  0.2132	 22.2675	  22.267	 133.245
 2665	  0.2132	 22.2750	  22.275	 133.295
 2666	  0.2140	 22.2837	  22.284	 133.345
 2667	  0.2132	 22.2913	  22.291	 133.395
 2668	  0.2136	 22.3000	  22.300	 133.445
 2669	  0.2136	 22.3088	  22.309	 133.495
 2670	  0.2136	 22.3162	  22.316	 133.545
 2671	  0.2136	 22.3250	  22.325	 133.595
 2672	  0.2140	 22.3337	  22.334	 133.645
 2673	  0.2136	 22.3412	  22.341	 133.695
 2674	  0.2136	 22.3500	  22.350	 133.745
 2675	  0.2128	 22.3587	  22.359	 133.795
 2676	  0.2128	 22.3662	  22.366	 133.845
 2677	  0.2132	 22.3750	  22.375	 133.895
 2678	  0.2136	 22.3837	  22.384	 133.945
 2679	  0.2136	 22.3912	  22.391	 133.995
 2680	  0.2128	 22.4000	  22.400	 134.045
 2681	  0.2132	 22.4087	  22.409	 134.095
 2682	  0.2132	 22.4163	  22.416	 134.145
 2683	  0.2132	 22.4250	  22.425	 134.195
 2684	  0.2128	 22.4338	  22.434	 134.245
 2685	  0.2136	 22.4412	  22.441	 134.295
 2686	  0.2136	 22.4500	  22.450	 134.345
 2687	  0.2136	 22.4587	  22.459	 134.395
 2688	  0.2144	 22.4662	  22.466	 134.445
 2689	  0.2136	 22.4750	  22.475	 134.495
 2690	  0.2140	 22.4837	  22.484	 134.545
 2691	  0.2140	 22.4912	  22.491	 134.595
 2692	  0.2136	 22.5000	  22.500	 134.645
 2693	  0.2136	 22.5087	  22.509	 134.695
 2694	  0.2136	 22.5162	  22.516	 134.745
 2695	  0.2140	 22.5250	  22.525	 134.795
 2696	  0.2140	 22.5337	  22.534	 134.845
 2697	  0.2136	 22.5413	  22.541	 134.895
 2698	  0.2136	 22.5500	  22.550	 134.945
 2699	  0.2136	 22.5588	  22.559	 134.995
 2700	  0.2140	 22.5662	  22.566	 135.045
 2701	  0.2136	 22.5750	  22.575	 135.095
 2702	  0.2144	 22.5837	  22.584	 135.145
 2703	  0.2132	 22.5912	  22.591	 135.195
 2704	  0.2136	 22.6000	  22.600	 135.245
 2705	  0.2140	 22.6087	  22.609	 135.295
 2706	  0.2136	 22.6162	  22.616	 135.345
 2707	  0.2136	 22.6250	  22.625	 135.395
 2708	  0.2132	 22.6325	  22.632	 135.445
 2709	  0.2136	 22.6412	  22.641	 135.495
 2710	  0.2144	 22.6500	  22.650	 135.545
 2711	  0.2136	 22.6587	  22.659	 135.595
 2712	  0.2136	 22.6663	  22.666	 135.645
 2713	  0.2140	 22.6750	  22.675	 135.695
 2714	  0.2140	 22.6838	  22.684	 135.745
 2715	  0.2140	 22.6912	  22.691	 135.795
 2716	  0.2140	 22.7000	  22.700	 135.845
 2717	  0.2136	 22.7087	  22.709	 135.895
 2718	  0.2136	 22.7162	  22.716	 135.945
 2719	  0.2140	 22.7250	  22.725	 135.995
 2720	  0.2144	 22.7337	  22.734	 136.045
 2721	  0.2148	 22.7412	  22.741	 136.095
 2722	  0.2144	 22.7500	  22.750	 136.145
 2723	  0.2132	 22.7575	  22.757	 136.195
 2724	  0.2136	 22.7662	  22.766	 136.245
 2725	  0.2140	 22.7750	  22.775	 136.295
 2726	  0.2136	 22.7837	  22.784	 136.345
 2727	  0.2136	 22.7913	  22.791	 136.395
 2728	  0.2136	 22.8000	  22.800	 136.445
 2729	  0.2140	 22.8088	  22.809	 136.495
 2730	  0.2136	 22.8162	  22.816	 136.545
 2731	  0.2136	 22.8250	  22.825	 136.595
 2732	  0.2132	 22.8325	  22.832	 136.645
 2733	  0.2140	 22.8412	  22.841	 136.695
 2734	  0.2140	 22.8500	  22.850	 136.745
 2735	  0.2132	 22.8575	  22.858	 136.795
 2736	  0.2136	 22.8662	  22.866	 136.845
 2737	  0.2140	 22.8750	  22.875	 136.895
 2738	  0.2140	 22.8825	  22.882	 136.945
 2739	  0.2132	 22.8912	  22.891	 136.995
 2740	  0.2140	 22.9000	  22.900	 137.045
 2741	  0.2144	 22.9087	  22.909	 137.095
 2742	  0.2140	 22.9163	  22.916	 137.145
 2743	  0.2140	 22.9250	  22.925	 137.195
 2744	  0.2140	 22.9338	  22.934	 137.245
 2745	  0.2140	 22.9412	  22.941	 137.295
 2746	  0.2140	 22.9500	  22.950	 137.345
 2747	  0.2140	 22.9587	  22.959	 137.395
 2748	  0.2144	 22.9662	  22.966	 137.445
 2749	  0.2140	 22.9750	  22.975	 137.495
 2750	  0.2148	 22.9837	  22.984	 137.545
 2751	  0.2140	 22.9912	  22.991	 137.595
 2752	  0.2144	 23.0000	  23.000	 137.645
 2753	  0.2140	 23.0075	  23.007	 137.695
 2754	  0.2140	 23.0162	  23.016	 137.745
 2755	  0.2144	 23.0250	  23.025	 137.795
 2756	  0.2144	 23.0337	  23.034	 137.845
 2757	  0.2144	 23.0413	  23.041	 137.895
 2758	  0.2144	 23.0500	  23.050	 137.945
 2759	  0.2144	 23.0588	  23.059	 137.995
 2760	  0.2140	 23.0662	  23.066	 138.045
 2761	  0.2140	 23.0750	  23.075	 138.095
 2762	  0.2140	 23.0837	  23.084	 138.145
 2763	  0.2140	 23.0912	  23.091	 138.195
 2764	  0.2140	 23.1000	  23.100	 138.245
 2765	  0.2136	 23.1087	  23.109	 138.295
 2766	  0.2140	 23.1162	  23.116	 138.345
 2767	  0.2140	 23.1250	  23.125	 138.395
 2768	  0.2136	 23.1337	  23.134	 138.445
 2769	  0.2144	 23.1412	  23.141	 138.495
 2770	  0.2148	 23.1500	  23.150	 138.545
 2771	  0.2148	 23.1587	  23.159	 138.595
 2772	  0.2144	 23.1675	  23.167	 138.645
 2773	  0.2140	 23.1750	  23.175	 138.695
 2774	  0.2140	 23.1838	  23.184	 138.745
 2775	  0.2136	 23.1925	  23.192	 138.795
 2776	  0.2140	 23.2000	  23.200	 138.845
 2777	  0.2148	 23.2087	  23.209	 138.895
 2778	  0.2144	 23.2175	  23.217	 138.945
 2779	  0.2140	 23.2262	  23.226	 138.995
 2780	  0.2144	 23.2337	  23.234	 139.045
 2781	  0.2144	 23.2425	  23.243	 139.095
 2782	  0.2144	 23.2512	  23.251	 139.145
 2783	  0.2148	 23.2587	  23.259	 139.195
 2784	  0.2148	 23.2675	  23.267	 139.245
 2785	  0.2148	 23.2762	  23.276	 139.295
 2786	  0.2152	 23.2837	  23.284	 139.345
 2787	  0.2148	 23.2925	  23.292	 139.395
 2788	  0.2148	 23.3012	  23.301	 139.445
 2789	  0.2148	 23.3100	  23.310	 139.495
 2790	  0.2144	 23.3175	  23.317	 139.545
 2791	  0.2144	 23.3263	  23.326	 139.595
 2792	  0.2140	 23.3350	  23.335	 139.645
 2793	  0.2144	 23.3425	  23.342	 139.695
 2794	  0.2148	 23.3512	  23.351	 139.745
 2795	  0.2144	 23.3600	  23.360	 139.795
 2796	  0.2152	 23.3687	  23.369	 139.845
 2797	  0.2148	 23.3762	  23.376	 139.895
 2798	  0.2144	 23.3850	  23.385	 139.945
 2799	  0.2148	 23.3937	  23.394	 139.995
 2800	  0.2148	 23.4012	  23.401	 140.045
 2801	  0.2148	 23.4100	  23.410	 140.095
 2802	  0.2148	 23.4187	  23.419	 140.145
 2803	  0.2148	 23.4275	  23.427	 140.195
 2804	  0.2148	 23.4350	  23.435	 140.245
 2805	  0.2148	 23.4438	  23.444	 140.295
 2806	  0.2148	 23.4525	  23.452	 140.345
 2807	  0.2140	 23.4600	  23.460	 140.395
 2808	  0.2144	 23.4688	  23.469	 140.445
 2809	  0.2148	 23.4775	  23.477	 140.495
 2810	  0.2152	 23.4862	  23.486	 140.545
 2811	  0.2152	 23.4937	  23.494	 140.595
 2812	  0.2148	 23.5025	  23.502	 140.645
 2813	  0.2148	 23.5112	  23.511	 140.695
 2814	  0.2148	 23.5200	  23.520	 140.745
 2815	  0.2152	 23.5275	  23.528	 140.795
 2816	  0.2152	 23.5362	  23.536	 140.845
 2817	  0.2156	 23.5437	  23.544	 140.895
 2818	  0.2152	 23.5525	  23.552	 140.945
 2819	  0.2152	 23.5612	  23.561	 140.995
 2820	  0.2152	 23.5700	  23.570	 141.045
 2821	  0.2152	 23.5775	  23.577	 141.095
 2822	  0.2152	 23.5863	  23.586	 141.145
 2823	  0.2152	 23.5950	  23.595	 141.195
 2824	  0.2152	 23.6038	  23.604	 141.245
 2825	  0.2156	 23.6112	  23.611	 141.295
 2826	  0.2156	 23.6200	  23.620	 141.345
 2827	  0.2152	 23.6287	  23.629	 141.395
 2828	  0.2156	 23.6362	  23.636	 141.445
 2829	  0.2156	 23.6450	  23.645	 141.495
 2830	  0.2156	 23.6537	  23.654	 141.545
 2831	  0.2156	 23.6625	  23.663	 141.595
 2832	  0.2152	 23.6700	  23.670	 141.645
 2833	  0.2156	 23.6787	  23.679	 141.695
 2834	  0.2152	 23.6875	  23.688	 141.745
 2835	  0.2152	 23.6950	  23.695	 141.795
 2836	  0.2156	 23.7037	  23.704	 141.845
 2837	  0.2156	 23.7125	  23.712	 141.895
 2838	  0.2160	 23.7212	  23.721	 141.945
 2839	  0.2156	 23.7300	  23.730	 141.995
 2840	  0.2152	 23.7375	  23.737	 142.045
 2841	  0.2164	 23.7463	  23.746	 142.095
 2842	  0.2152	 23.7550	  23.755	 142.145
 2843	  0.2156	 23.7625	  23.762	 142.195
 2844	  0.2156	 23.7712	  23.771	 142.245
 2845	  0.2152	 23.7800	  23.780	 142.295
 2846	  0.2156	 23.7887	  23.789	 142.345
 2847	  0.2160	 23.7962	  23.796	 142.395
 2848	  0.2152	 23.8050	  23.805	 142.445
 2849	  0.2160	 23.8137	  23.814	 142.495
 2850	  0.2156	 23.8212	  23.821	 142.545
 2851	  0.2156	 23.8300	  23.830	 142.595
 2852	  0.2160	 23.8387	  23.839	 142.645
 2853	  0.2152	 23.8462	  23.846	 142.695
 2854	  0.2156	 23.8550	  23.855	 142.745
 2855	  0.2148	 23.8637	  23.864	 142.795
 2856	  0.2156	 23.8713	  23.871	 142.845
 2857	  0.2160	 23.8800	  23.880	 142.895
 2858	  0.2160	 23.8888	  23.889	 142.945
 2859	  0.2156	 23.8975	  23.897	 142.995
 2860	  0.2156	 23.9062	  23.906	 143.045
 2861	  0.2156	 23.9137	  23.914	 143.095
 2862	  0.2156	 23.9225	  23.922	 143.145
 2863	  0.2156	 23.9312	  23.931	 143.195
 2864	  0.2152	 23.9387	  23.939	 143.245
 2865	  0.2152	 23.9475	  23.948	 143.295
 2866	  0.2152	 23.9562	  23.956	 143.345
 2867	  0.2156	 23.9637	  23.964	 143.395
 2868	  0.2156	 23.9725	  23.972	 143.445
 2869	  0.2156	 23.9812	  23.981	 143.495
 2870	  0.2152	 23.9900	  23.990	 143.545
 2871	  0.2160	 23.9975	  23.997	 143.595
 2872	  0.2156	 24.0063	  24.006	 143.645
 2873	  0.2160	 24.0150	  24.015	 143.695
 2874	  0.2152	 24.0225	  24.022	 143.745
 2875	  0.2152	 24.0312	  24.031	 143.795
 2876	  0.2160	 24.0400	  24.040	 143.845
 2877	  0.2160	 24.0487	  24.049	 143.895
 2878	  0.2160	 24.0562	  24.056	 143.945
 2879	  0.2156	 24.0650	  24.065	 143.995
 2880	  0.2152	 24.0737	  24.074	 144.045
 2881	  0.2152	 24.0812	  24.081	 144.095
 2882	  0.2164	 24.0900	  24.090	 144.145
 2883	  0.2152	 24.0987	  24.099	 144.195
 2884	  0.2148	 24.1062	  24.106	 144.245
 2885	  0.2148	 24.1150	  24.115	 144.295
 2886	  0.2152	 24.1237	  24.124	 144.345
 2887	  0.2160	 24.1313	  24.131	 144.395
 2888	  0.2156	 24.1400	  24.140	 144.445
 2889	  0.2156	 24.1488	  24.149	 144.495
 2890	  0.2156	 24.1575	  24.157	 144.545
 2891	  0.2156	 24.1650	  24.165	 144.595
 2892	  0.2160	 24.1737	  24.174	 144.645
 2893	  0.2160	 24.1825	  24.182	 144.695
 2894	  0.2160	 24.1900	  24.190	 144.745
 2895	  0.2160	 24.1987	  24.199	 144.795
 2896	  0.2164	 24.2075	  24.207	 144.845
 2897	  0.2168	 24.2150	  24.215	 144.895
 2898	  0.2160	 24.2237	  24.224	 144.945
 2899	  0.2164	 24.2325	  24.233	 144.995
 2900	  0.2168	 24.2412	  24.241	 145.045
 2901	  0.2168	 24.2487	  24.249	 145.095
 2902	  0.2168	 24.2575	  24.257	 145.145
 2903	  0.2172	 24.2662	  24.266	 145.195
 2904	  0.2168	 24.2738	  24.274	 145.245
 2905	  0.2168	 24.2825	  24.282	 145.295
 2906	  0.2164	 24.2913	  24.291	 145.345
 2907	  0.2160	 24.3000	  24.300	 145.395
 2908	  0.2164	 24.3075	  24.307	 145.445
 2909	  0.2164	 24.3162	  24.316	 145.495
 2910	  0.2156	 24.3250	  24.325	 145.545
 2911	  0.2160	 24.3325	  24.332	 145.595
 2912	  0.2164	 24.3412	  24.341	 145.645
 2913	  0.2164	 24.3500	  24.350	 145.695
 2914	  0.2160	 24.3587	  24.359	 145.745
 2915	  0.2160	 24.3662	  24.366	 145.795
 2916	  0.2160	 24.3750	  24.375	 145.845
 2917	  0.2160	 24.3825	  24.382	 145.895
 2918	  0.2160	 24.3912	  24.391	 145.945
 2919	  0.2160	 24.4000	  24.400	 145.995
 2920	  0.2160	 24.4075	  24.407	 146.045
 2921	  0.2164	 24.4163	  24.416	 146.095
 2922	  0.2164	 24.4250	  24.425	 146.145
 2923	  0.2164	 24.4325	  24.432	 146.195
 2924	  0.2160	 24.4412	  24.441	 146.245
 2925	  0.2168	 24.4500	  24.450	 146.295
 2926	  0.2156	 24.4575	  24.457	 146.345
 2927	  0.2160	 24.4662	  24.466	 146.395
 2928	  0.2160	 24.4750	  24.475	 146.445
 2929	  0.2164	 24.4837	  24.484	 146.495
 2930	  0.2164	 24.4912	  24.491	 146.545
 2931	  0.2168	 24.5000	  24.500	 146.595
 2932	  0.2164	 24.5087	  24.509	 146.645
 2933	  0.2164	 24.5162	  24.516	 146.695
 2934	  0.2164	 24.5250	  24.525	 146.745
 2935	  0.2160	 24.5337	  24.534	 146.795
 2936	  0.2164	 24.5413	  24.541	 146.845
 2937	  0.2164	 24.5500	  24.550	 146.895
 2938	  0.2164	 24.5588	  24.559	 146.945
 2939	  0.2160	 24.5675	  24.567	 146.995
 2940	  0.2164	 24.5750	  24.575	 147.045
 2941	  0.2160	 24.5837	  24.584	 147.095
 2942	  0.2152	 24.5925	  24.592	 147.145
 2943	  0.2164	 24.6000	  24.600	 147.195
 2944	  0.2156	 24.6087	  24.609	 147.245
 2945	  0.2156	 24.6175	  24.618	 147.295
 2946	  0.2152	 24.6250	  24.625	 147.345
 2947	  0.2152	 24.6337	  24.634	 147.395
 2948	  0.2148	 24.6425	  24.642	 147.445
 2949	  0.2152	 24.6500	  24.650	 147.495
 2950	  0.2148	 24.6587	  24.659	 147.545
 2951	  0.2148	 24.6675	  24.667	 147.595
 2952	  0.2144	 24.6750	  24.675	 147.645
 2953	  0.1768	 24.6838	  24.684	 147.695
 2954	  0.0028	 24.6925	  24.692	 147.745
 2955	  0.0020	 24.7000	  24.700	 147.795
 2956	  0.0024	 24.7087	  24.709	 147.845
 2957	  0.0020	 24.7175	  24.717	 147.895
 2958	  0.0016	 24.7262	  24.726	 147.945
 2959	  0.0024	 24.7337	  24.734	 147.995
 2960	  0.0020	 24.7425	  24.743	 148.045
 2961	  0.0020	 24.7512	  24.751	 148.095
 2962	  0.0024	 24.7587	  24.759	 148.145
 2963	  0.0024	 24.7675	  24.767	 148.195
 2964	  0.0024	 24.7762	  24.776	 148.245
 2965	  0.0024	 24.7837	  24.784	 148.295
 2966	  0.0024	 24.7925	  24.792	 148.345
 2967	  0.0020	 24.8012	  24.801	 148.395
 2968	  0.0028	 24.8100	  24.810	 148.445
 2969	  0.0028	 24.8175	  24.817	 148.495
 2970	  0.0024	 24.8263	  24.826	 148.545
 2971	  0.0024	 24.8350	  24.835	 148.595
 2972	  0.0024	 24.8425	  24.842	 148.645
 2973	  0.0020	 24.8512	  24.851	 148.695
 2974	  0.0028	 24.8600	  24.860	 148.745
 2975	  0.0028	 24.8675	  24.868	 148.795
 2976	  0.0020	 24.8762	  24.876	 148.845
 2977	  0.0024	 24.8850	  24.885	 148.895
 2978	  0.0024	 24.8925	  24.892	 148.945
 2979	  0.0024	 24.9012	  24.901	 148.995
 2980	  0.0020	 24.9100	  24.910	 149.045
 2981	  0.0024	 24.9175	  24.917	 149.095
 2982	  0.0020	 24.9262	  24.926	 149.145
 2983	  0.0024	 24.9350	  24.935	 149.195
 2984	  0.0024	 24.9438	  24.944	 149.245
 2985	  0.0024	 24.9513	  24.951	 149.295
 2986	  0.0020	 24.9600	  24.960	 149.345
 2987	  0.0028	 24.9675	  24.967	 149.395
 2988	  0.0028	 24.9762	  24.976	 149.445
 2989	  0.0024	 24.9850	  24.985	 149.495
 2990	  0.0020	 24.9937	  24.994	 149.545
 2991	  0.0024	 25.0012	  25.001	 149.595
 2992	  0.0020	 25.0100	  25.010	 149.645
 2993	  0.0024	 25.0187	  25.019	 149.695
 2994	  0.0020	 25.0275	  25.028	 149.745
 2995	  0.0024	 25.0350	  25.035	 149.795
 2996	  0.0020	 25.0437	  25.044	 149.845
 2997	  0.0024	 25.0525	  25.052	 149.895
 2998	  0.0016	 25.0600	  25.060	 149.945
 2999	  0.0020	 25.0688	  25.069	 149.995
 3000	  0.0020	 25.0775	  25.077	 150.045
 3001	  0.0020	 25.0863	  25.086	 150.095
 3002	  0.0024	 25.0938	  25.094	 150.145
 3003	  0.0024	 25.1025	  25.102	 150.195
 3004	  0.0028	 25.1100	  25.110	 150.245
 3005	  0.0024	 25.1187	  25.119	 150.295
 3006	  0.0028	 25.1275	  25.127	 150.345
 3007	  0.0020	 25.1350	  25.135	 150.395
 3008	  0.0024	 25.1437	  25.144	 150.445
ControlMode:	0
Rate:	 10.0000
(null)
4
step	1
0
5.000000
0.000000
1
1
0.500000
2
step	2
1
5.000000
0.000000
1
1
2.000000
3
step	3
5
2.000000
0.000000
1
0
30.000000
4
step	4
8
0.000000
0.000000
0
0
0.000000
0
2
