0
Diameter:	   5.00
   1.00
Area:	  19.6350
GaugeLength:	  50.00
2009-1-1
A3
001
DataNumber:	3529
index	Load(kN)	Defor(mm)	Stroke(mm)	Time(s)
    0	  0.0092	  0.0088	   0.009	   0.045
    1	  0.0096	  0.0162	   0.016	   0.095
    2	  0.0100	  0.0250	   0.025	   0.145
    3	  0.0100	  0.0337	   0.034	   0.195
    4	  0.0092	  0.0412	   0.041	   0.245
    5	  0.0088	  0.0500	   0.050	   0.295
    6	  0.0092	  0.0587	   0.059	   0.345
    7	  0.0096	  0.0675	   0.067	   0.395
    8	  0.0092	  0.0750	   0.075	   0.445
    9	  0.0092	  0.0837	   0.084	   0.495
   10	  0.0092	  0.0925	   0.093	   0.545
   11	  0.0092	  0.1000	   0.100	   0.595
   12	  0.0092	  0.1088	   0.109	   0.645
   13	  0.0092	  0.1163	   0.116	   0.695
   14	  0.0092	  0.1250	   0.125	   0.745
   15	  0.0096	  0.1337	   0.134	   0.795
   16	  0.0096	  0.1425	   0.142	   0.845
   17	  0.0096	  0.1500	   0.150	   0.895
   18	  0.0100	  0.1587	   0.159	   0.945
   19	  0.0096	  0.1675	   0.167	   0.995
   20	  0.0100	  0.1762	   0.176	   1.045
   21	  0.0100	  0.1837	   0.184	   1.095
   22	  0.0104	  0.1925	   0.192	   1.145
   23	  0.0104	  0.2013	   0.201	   1.195
   24	  0.0100	  0.2087	   0.209	   1.245
   25	  0.0096	  0.2175	   0.218	   1.295
   26	  0.0100	  0.2262	   0.226	   1.345
   27	  0.0096	  0.2338	   0.234	   1.395
   28	  0.0096	  0.2425	   0.242	   1.445
   29	  0.0100	  0.2512	   0.251	   1.495
   30	  0.0100	  0.2600	   0.260	   1.545
   31	  0.0096	  0.2675	   0.267	   1.595
   32	  0.0100	  0.2763	   0.276	   1.645
   33	  0.0100	  0.2850	   0.285	   1.695
   34	  0.0096	  0.2925	   0.292	   1.745
   35	  0.0100	  0.3012	   0.301	   1.795
   36	  0.0100	  0.3100	   0.310	   1.845
   37	  0.0100	  0.3175	   0.317	   1.895
   38	  0.0104	  0.3262	   0.326	   1.945
   39	  0.0104	  0.3350	   0.335	   1.995
   40	  0.0100	  0.3438	   0.344	   2.045
   41	  0.0100	  0.3512	   0.351	   2.095
   42	  0.0108	  0.3600	   0.360	   2.145
   43	  0.0108	  0.3688	   0.369	   2.195
   44	  0.0108	  0.3762	   0.376	   2.245
   45	  0.0108	  0.3850	   0.385	   2.295
   46	  0.0104	  0.3937	   0.394	   2.345
   47	  0.0108	  0.4013	   0.401	   2.395
   48	  0.0108	  0.4100	   0.410	   2.445
   49	  0.0116	  0.4187	   0.419	   2.495
   50	  0.0116	  0.4275	   0.427	   2.545
   51	  0.0112	  0.4350	   0.435	   2.595
   52	  0.0116	  0.4437	   0.444	   2.645
   53	  0.0116	  0.4525	   0.452	   2.695
   54	  0.0116	  0.4600	   0.460	   2.745
   55	  0.0108	  0.4688	   0.469	   2.795
   56	  0.0116	  0.4775	   0.477	   2.845
   57	  0.0116	  0.4862	   0.486	   2.895
   58	  0.0112	  0.4937	   0.494	   2.945
   59	  0.0120	  0.5025	   0.502	   2.995
   60	  0.0124	  0.5112	   0.511	   3.045
   61	  0.0116	  0.5200	   0.520	   3.095
   62	  0.0124	  0.5275	   0.527	   3.145
   63	  0.0120	  0.5362	   0.536	   3.195
   64	  0.0120	  0.5450	   0.545	   3.245
   65	  0.0120	  0.5525	   0.553	   3.295
   66	  0.0116	  0.5612	   0.561	   3.345
   67	  0.0120	  0.5700	   0.570	   3.395
   68	  0.0116	  0.5788	   0.579	   3.445
   69	  0.0120	  0.5863	   0.586	   3.495
   70	  0.0128	  0.5950	   0.595	   3.545
   71	  0.0132	  0.6037	   0.604	   3.595
   72	  0.0128	  0.6112	   0.611	   3.645
   73	  0.0120	  0.6200	   0.620	   3.695
   74	  0.0124	  0.6287	   0.629	   3.745
   75	  0.0132	  0.6362	   0.636	   3.795
   76	  0.0132	  0.6450	   0.645	   3.845
   77	  0.0128	  0.6538	   0.654	   3.895
   78	  0.0132	  0.6612	   0.661	   3.945
   79	  0.0124	  0.6700	   0.670	   3.995
   80	  0.0128	  0.6787	   0.679	   4.045
   81	  0.0128	  0.6875	   0.688	   4.095
   82	  0.0128	  0.6950	   0.695	   4.145
   83	  0.0128	  0.7037	   0.704	   4.195
   84	  0.0132	  0.7125	   0.712	   4.245
   85	  0.0124	  0.7200	   0.720	   4.295
   86	  0.0132	  0.7287	   0.729	   4.345
   87	  0.0132	  0.7375	   0.738	   4.395
   88	  0.0128	  0.7450	   0.745	   4.445
   89	  0.0132	  0.7537	   0.754	   4.495
   90	  0.0132	  0.7625	   0.762	   4.545
   91	  0.0132	  0.7713	   0.771	   4.595
   92	  0.0132	  0.7788	   0.779	   4.645
   93	  0.0132	  0.7875	   0.787	   4.695
   94	  0.0128	  0.7962	   0.796	   4.745
   95	  0.0132	  0.8037	   0.804	   4.795
   96	  0.0140	  0.8125	   0.812	   4.845
   97	  0.0136	  0.8212	   0.821	   4.895
   98	  0.0140	  0.8287	   0.829	   4.945
   99	  0.0148	  0.8375	   0.837	   4.995
  100	  0.0152	  0.8462	   0.846	   5.045
  101	  0.0152	  0.8537	   0.854	   5.095
  102	  0.0148	  0.8625	   0.862	   5.145
  103	  0.0148	  0.8712	   0.871	   5.195
  104	  0.0144	  0.8787	   0.879	   5.245
  105	  0.0148	  0.8875	   0.887	   5.295
  106	  0.0152	  0.8963	   0.896	   5.345
  107	  0.0144	  0.9038	   0.904	   5.395
  108	  0.0144	  0.9125	   0.912	   5.445
  109	  0.0144	  0.9212	   0.921	   5.495
  110	  0.0140	  0.9300	   0.930	   5.545
  111	  0.0144	  0.9375	   0.938	   5.595
  112	  0.0148	  0.9462	   0.946	   5.645
  113	  0.0144	  0.9537	   0.954	   5.695
  114	  0.0148	  0.9625	   0.962	   5.745
  115	  0.0144	  0.9712	   0.971	   5.795
  116	  0.0148	  0.9800	   0.980	   5.845
  117	  0.0152	  0.9875	   0.987	   5.895
  118	  0.0160	  0.9962	   0.996	   5.945
  119	  0.0156	  1.0050	   1.005	   5.995
  120	  0.0156	  1.0125	   1.012	   6.045
  121	  0.0156	  1.0213	   1.021	   6.095
  122	  0.0152	  1.0300	   1.030	   6.145
  123	  0.0152	  1.0375	   1.038	   6.195
  124	  0.0148	  1.0462	   1.046	   6.245
  125	  0.0148	  1.0550	   1.055	   6.295
  126	  0.0152	  1.0625	   1.062	   6.345
  127	  0.0152	  1.0712	   1.071	   6.395
  128	  0.0148	  1.0800	   1.080	   6.445
  129	  0.0148	  1.0875	   1.087	   6.495
  130	  0.0148	  1.0962	   1.096	   6.545
  131	  0.0156	  1.1050	   1.105	   6.595
  132	  0.0148	  1.1125	   1.112	   6.645
  133	  0.0152	  1.1213	   1.121	   6.695
  134	  0.0152	  1.1300	   1.130	   6.745
  135	  0.0148	  1.1375	   1.137	   6.795
  136	  0.0152	  1.1463	   1.146	   6.845
  137	  0.0152	  1.1550	   1.155	   6.895
  138	  0.0156	  1.1637	   1.164	   6.945
  139	  0.0156	  1.1712	   1.171	   6.995
  140	  0.0160	  1.1800	   1.180	   7.045
  141	  0.0164	  1.1888	   1.189	   7.095
  142	  0.0160	  1.1962	   1.196	   7.145
  143	  0.0160	  1.2050	   1.205	   7.195
  144	  0.0168	  1.2138	   1.214	   7.245
  145	  0.0160	  1.2212	   1.221	   7.295
  146	  0.0156	  1.2300	   1.230	   7.345
  147	  0.0160	  1.2387	   1.239	   7.395
  148	  0.0160	  1.2462	   1.246	   7.445
  149	  0.0168	  1.2550	   1.255	   7.495
  150	  0.0164	  1.2637	   1.264	   7.545
  151	  0.0164	  1.2725	   1.272	   7.595
  152	  0.0168	  1.2800	   1.280	   7.645
  153	  0.0168	  1.2887	   1.289	   7.695
  154	  0.0168	  1.2975	   1.298	   7.745
  155	  0.0168	  1.3062	   1.306	   7.795
  156	  0.0172	  1.3138	   1.314	   7.845
  157	  0.0172	  1.3225	   1.322	   7.895
  158	  0.0172	  1.3312	   1.331	   7.945
  159	  0.0172	  1.3388	   1.339	   7.995
  160	  0.0176	  1.3475	   1.347	   8.045
  161	  0.0176	  1.3562	   1.356	   8.095
  162	  0.0176	  1.3637	   1.364	   8.145
  163	  0.0180	  1.3725	   1.372	   8.195
  164	  0.0176	  1.3800	   1.380	   8.245
  165	  0.0184	  1.3887	   1.389	   8.295
  166	  0.0176	  1.3975	   1.397	   8.345
  167	  0.0180	  1.4062	   1.406	   8.395
  168	  0.0184	  1.4137	   1.414	   8.445
  169	  0.0180	  1.4225	   1.423	   8.495
  170	  0.0184	  1.4312	   1.431	   8.545
  171	  0.0184	  1.4400	   1.440	   8.595
  172	  0.0180	  1.4475	   1.447	   8.645
  173	  0.0184	  1.4562	   1.456	   8.695
  174	  0.0180	  1.4638	   1.464	   8.745
  175	  0.0180	  1.4725	   1.472	   8.795
  176	  0.0184	  1.4812	   1.481	   8.845
  177	  0.0184	  1.4900	   1.490	   8.895
  178	  0.0188	  1.4975	   1.497	   8.945
  179	  0.0188	  1.5063	   1.506	   8.995
  180	  0.0192	  1.5150	   1.515	   9.045
  181	  0.0184	  1.5225	   1.522	   9.095
  182	  0.0188	  1.5312	   1.531	   9.145
  183	  0.0192	  1.5400	   1.540	   9.195
  184	  0.0196	  1.5487	   1.549	   9.245
  185	  0.0204	  1.5562	   1.556	   9.295
  186	  0.0200	  1.5650	   1.565	   9.345
  187	  0.0192	  1.5738	   1.574	   9.395
  188	  0.0204	  1.5812	   1.581	   9.445
  189	  0.0200	  1.5900	   1.590	   9.495
  190	  0.0204	  1.5987	   1.599	   9.545
  191	  0.0200	  1.6075	   1.607	   9.595
  192	  0.0204	  1.6150	   1.615	   9.645
  193	  0.0200	  1.6237	   1.624	   9.695
  194	  0.0208	  1.6325	   1.632	   9.745
  195	  0.0200	  1.6400	   1.640	   9.795
  196	  0.0208	  1.6487	   1.649	   9.845
  197	  0.0208	  1.6575	   1.657	   9.895
  198	  0.0212	  1.6650	   1.665	   9.945
  199	  0.0208	  1.6737	   1.674	   9.995
  200	  0.0208	  1.6825	   1.683	  10.045
  201	  0.0212	  1.6912	   1.691	  10.095
  202	  0.0212	  1.6988	   1.699	  10.145
  203	  0.0216	  1.7075	   1.707	  10.195
  204	  0.0220	  1.7162	   1.716	  10.245
  205	  0.0220	  1.7250	   1.725	  10.295
  206	  0.0220	  1.7325	   1.732	  10.345
  207	  0.0216	  1.7412	   1.741	  10.395
  208	  0.0216	  1.7500	   1.750	  10.445
  209	  0.0216	  1.7575	   1.757	  10.495
  210	  0.0220	  1.7663	   1.766	  10.545
  211	  0.0220	  1.7750	   1.775	  10.595
  212	  0.0216	  1.7825	   1.782	  10.645
  213	  0.0220	  1.7912	   1.791	  10.695
  214	  0.0224	  1.8000	   1.800	  10.745
  215	  0.0220	  1.8087	   1.809	  10.795
  216	  0.0228	  1.8162	   1.816	  10.845
  217	  0.0228	  1.8250	   1.825	  10.895
  218	  0.0232	  1.8338	   1.834	  10.945
  219	  0.0224	  1.8412	   1.841	  10.995
  220	  0.0228	  1.8500	   1.850	  11.045
  221	  0.0220	  1.8587	   1.859	  11.095
  222	  0.0224	  1.8675	   1.867	  11.145
  223	  0.0228	  1.8750	   1.875	  11.195
  224	  0.0232	  1.8837	   1.884	  11.245
  225	  0.0232	  1.8925	   1.892	  11.295
  226	  0.0232	  1.9000	   1.900	  11.345
  227	  0.0224	  1.9087	   1.909	  11.395
  228	  0.0236	  1.9162	   1.916	  11.445
  229	  0.0240	  1.9250	   1.925	  11.495
  230	  0.0236	  1.9337	   1.934	  11.545
  231	  0.0236	  1.9425	   1.942	  11.595
  232	  0.0240	  1.9500	   1.950	  11.645
  233	  0.0232	  1.9588	   1.959	  11.695
  234	  0.0244	  1.9675	   1.967	  11.745
  235	  0.0240	  1.9762	   1.976	  11.795
  236	  0.0240	  1.9837	   1.984	  11.845
  237	  0.0240	  1.9925	   1.992	  11.895
  238	  0.0236	  2.0013	   2.001	  11.945
  239	  0.0244	  2.0087	   2.009	  11.995
  240	  0.0248	  2.0175	   2.017	  12.045
  241	  0.0244	  2.0262	   2.026	  12.095
  242	  0.0252	  2.0338	   2.034	  12.145
  243	  0.0256	  2.0425	   2.043	  12.195
  244	  0.0260	  2.0512	   2.051	  12.245
  245	  0.0252	  2.0587	   2.059	  12.295
  246	  0.0256	  2.0675	   2.067	  12.345
  247	  0.0256	  2.0762	   2.076	  12.395
  248	  0.0260	  2.0838	   2.084	  12.445
  249	  0.0260	  2.0925	   2.092	  12.495
  250	  0.0260	  2.1012	   2.101	  12.545
  251	  0.0264	  2.1100	   2.110	  12.595
  252	  0.0260	  2.1175	   2.118	  12.645
  253	  0.0260	  2.1263	   2.126	  12.695
  254	  0.0260	  2.1350	   2.135	  12.745
  255	  0.0264	  2.1437	   2.144	  12.795
  256	  0.0260	  2.1512	   2.151	  12.845
  257	  0.0256	  2.1600	   2.160	  12.895
  258	  0.0268	  2.1675	   2.168	  12.945
  259	  0.0264	  2.1762	   2.176	  12.995
  260	  0.0264	  2.1850	   2.185	  13.045
  261	  0.0268	  2.1925	   2.192	  13.095
  262	  0.0272	  2.2012	   2.201	  13.145
  263	  0.0268	  2.2100	   2.210	  13.195
  264	  0.0272	  2.2175	   2.217	  13.245
  265	  0.0268	  2.2262	   2.226	  13.295
  266	  0.0276	  2.2350	   2.235	  13.345
  267	  0.0272	  2.2425	   2.243	  13.395
  268	  0.0276	  2.2513	   2.251	  13.445
  269	  0.0272	  2.2600	   2.260	  13.495
  270	  0.0272	  2.2687	   2.269	  13.545
  271	  0.0276	  2.2762	   2.276	  13.595
  272	  0.0284	  2.2850	   2.285	  13.645
  273	  0.0284	  2.2938	   2.294	  13.695
  274	  0.0280	  2.3012	   2.301	  13.745
  275	  0.0284	  2.3100	   2.310	  13.795
  276	  0.0284	  2.3187	   2.319	  13.845
  277	  0.0284	  2.3275	   2.327	  13.895
  278	  0.0280	  2.3350	   2.335	  13.945
  279	  0.0280	  2.3438	   2.344	  13.995
  280	  0.0288	  2.3525	   2.352	  14.045
  281	  0.0284	  2.3600	   2.360	  14.095
  282	  0.0292	  2.3687	   2.369	  14.145
  283	  0.0288	  2.3763	   2.376	  14.195
  284	  0.0288	  2.3850	   2.385	  14.245
  285	  0.0300	  2.3937	   2.394	  14.295
  286	  0.0292	  2.4025	   2.402	  14.345
  287	  0.0308	  2.4100	   2.410	  14.395
  288	  0.0308	  2.4188	   2.419	  14.445
  289	  0.0304	  2.4275	   2.428	  14.495
  290	  0.0308	  2.4350	   2.435	  14.545
  291	  0.0304	  2.4437	   2.444	  14.595
  292	  0.0304	  2.4525	   2.452	  14.645
  293	  0.0300	  2.4600	   2.460	  14.695
  294	  0.0304	  2.4688	   2.469	  14.745
  295	  0.0308	  2.4775	   2.477	  14.795
  296	  0.0304	  2.4850	   2.485	  14.845
  297	  0.0308	  2.4937	   2.494	  14.895
  298	  0.0308	  2.5025	   2.503	  14.945
  299	  0.0308	  2.5100	   2.510	  14.995
  300	  0.0312	  2.5187	   2.519	  15.045
  301	  0.0316	  2.5275	   2.527	  15.095
  302	  0.0320	  2.5362	   2.536	  15.145
  303	  0.0320	  2.5438	   2.544	  15.195
  304	  0.0316	  2.5525	   2.553	  15.245
  305	  0.0316	  2.5612	   2.561	  15.295
  306	  0.0320	  2.5700	   2.570	  15.345
  307	  0.0320	  2.5775	   2.577	  15.395
  308	  0.0332	  2.5862	   2.586	  15.445
  309	  0.0328	  2.5938	   2.594	  15.495
  310	  0.0332	  2.6025	   2.602	  15.545
  311	  0.0324	  2.6112	   2.611	  15.595
  312	  0.0320	  2.6200	   2.620	  15.645
  313	  0.0328	  2.6275	   2.628	  15.695
  314	  0.0332	  2.6363	   2.636	  15.745
  315	  0.0328	  2.6450	   2.645	  15.795
  316	  0.0332	  2.6525	   2.652	  15.845
  317	  0.0332	  2.6612	   2.661	  15.895
  318	  0.0332	  2.6700	   2.670	  15.945
  319	  0.0336	  2.6775	   2.678	  15.995
  320	  0.0340	  2.6862	   2.686	  16.045
  321	  0.0340	  2.6950	   2.695	  16.095
  322	  0.0340	  2.7025	   2.702	  16.145
  323	  0.0340	  2.7112	   2.711	  16.195
  324	  0.0344	  2.7200	   2.720	  16.245
  325	  0.0340	  2.7287	   2.729	  16.295
  326	  0.0340	  2.7362	   2.736	  16.345
  327	  0.0348	  2.7450	   2.745	  16.395
  328	  0.0340	  2.7525	   2.753	  16.445
  329	  0.0340	  2.7613	   2.761	  16.495
  330	  0.0348	  2.7700	   2.770	  16.545
  331	  0.0356	  2.7775	   2.777	  16.595
  332	  0.0356	  2.7862	   2.786	  16.645
  333	  0.0356	  2.7950	   2.795	  16.695
  334	  0.0356	  2.8038	   2.804	  16.745
  335	  0.0356	  2.8112	   2.811	  16.795
  336	  0.0356	  2.8200	   2.820	  16.845
  337	  0.0360	  2.8287	   2.829	  16.895
  338	  0.0368	  2.8375	   2.837	  16.945
  339	  0.0364	  2.8450	   2.845	  16.995
  340	  0.0368	  2.8537	   2.854	  17.045
  341	  0.0368	  2.8625	   2.862	  17.095
  342	  0.0372	  2.8700	   2.870	  17.145
  343	  0.0372	  2.8787	   2.879	  17.195
  344	  0.0368	  2.8875	   2.888	  17.245
  345	  0.0372	  2.8950	   2.895	  17.295
  346	  0.0376	  2.9037	   2.904	  17.345
  347	  0.0372	  2.9125	   2.912	  17.395
  348	  0.0376	  2.9200	   2.920	  17.445
  349	  0.0380	  2.9288	   2.929	  17.495
  350	  0.0376	  2.9375	   2.938	  17.545
  351	  0.0376	  2.9450	   2.945	  17.595
  352	  0.0380	  2.9537	   2.954	  17.645
  353	  0.0380	  2.9625	   2.962	  17.695
  354	  0.0384	  2.9700	   2.970	  17.745
  355	  0.0392	  2.9787	   2.979	  17.795
  356	  0.0392	  2.9875	   2.987	  17.845
  357	  0.0396	  2.9950	   2.995	  17.895
  358	  0.0392	  3.0037	   3.004	  17.945
  359	  0.0392	  3.0125	   3.013	  17.995
  360	  0.0392	  3.0200	   3.020	  18.045
  361	  0.0388	  3.0287	   3.029	  18.095
  362	  0.0392	  3.0375	   3.037	  18.145
  363	  0.0388	  3.0450	   3.045	  18.195
  364	  0.0388	  3.0538	   3.054	  18.245
  365	  0.0388	  3.0625	   3.062	  18.295
  366	  0.0400	  3.0700	   3.070	  18.345
  367	  0.0400	  3.0787	   3.079	  18.395
  368	  0.0396	  3.0875	   3.087	  18.445
  369	  0.0400	  3.0950	   3.095	  18.495
  370	  0.0400	  3.1037	   3.104	  18.545
  371	  0.0404	  3.1125	   3.112	  18.595
  372	  0.0408	  3.1212	   3.121	  18.645
  373	  0.0408	  3.1287	   3.129	  18.695
  374	  0.0408	  3.1375	   3.138	  18.745
  375	  0.0408	  3.1463	   3.146	  18.795
  376	  0.0412	  3.1537	   3.154	  18.845
  377	  0.0416	  3.1625	   3.162	  18.895
  378	  0.0416	  3.1700	   3.170	  18.945
  379	  0.0416	  3.1788	   3.179	  18.995
  380	  0.0412	  3.1875	   3.188	  19.045
  381	  0.0424	  3.1950	   3.195	  19.095
  382	  0.0424	  3.2037	   3.204	  19.145
  383	  0.0420	  3.2125	   3.212	  19.195
  384	  0.0424	  3.2200	   3.220	  19.245
  385	  0.0424	  3.2287	   3.229	  19.295
  386	  0.0424	  3.2375	   3.237	  19.345
  387	  0.0428	  3.2450	   3.245	  19.395
  388	  0.0428	  3.2537	   3.254	  19.445
  389	  0.0432	  3.2625	   3.262	  19.495
  390	  0.0432	  3.2713	   3.271	  19.545
  391	  0.0436	  3.2787	   3.279	  19.595
  392	  0.0436	  3.2875	   3.287	  19.645
  393	  0.0436	  3.2950	   3.295	  19.695
  394	  0.0440	  3.3038	   3.304	  19.745
  395	  0.0440	  3.3125	   3.312	  19.795
  396	  0.0440	  3.3200	   3.320	  19.845
  397	  0.0440	  3.3287	   3.329	  19.895
  398	  0.0440	  3.3375	   3.337	  19.945
  399	  0.0444	  3.3450	   3.345	  19.995
  400	  0.0448	  3.3537	   3.354	  20.045
  401	  0.0452	  3.3625	   3.362	  20.095
  402	  0.0452	  3.3700	   3.370	  20.145
  403	  0.0452	  3.3787	   3.379	  20.195
  404	  0.0448	  3.3875	   3.387	  20.245
  405	  0.0448	  3.3963	   3.396	  20.295
  406	  0.0448	  3.4037	   3.404	  20.345
  407	  0.0456	  3.4125	   3.412	  20.395
  408	  0.0456	  3.4212	   3.421	  20.445
  409	  0.0460	  3.4288	   3.429	  20.495
  410	  0.0456	  3.4375	   3.438	  20.545
  411	  0.0460	  3.4462	   3.446	  20.595
  412	  0.0460	  3.4537	   3.454	  20.645
  413	  0.0456	  3.4625	   3.462	  20.695
  414	  0.0464	  3.4700	   3.470	  20.745
  415	  0.0460	  3.4787	   3.479	  20.795
  416	  0.0464	  3.4875	   3.487	  20.845
  417	  0.0460	  3.4950	   3.495	  20.895
  418	  0.0472	  3.5037	   3.504	  20.945
  419	  0.0468	  3.5125	   3.512	  20.995
  420	  0.0468	  3.5200	   3.520	  21.045
  421	  0.0476	  3.5287	   3.529	  21.095
  422	  0.0476	  3.5375	   3.537	  21.145
  423	  0.0488	  3.5450	   3.545	  21.195
  424	  0.0484	  3.5538	   3.554	  21.245
  425	  0.0488	  3.5625	   3.562	  21.295
  426	  0.0484	  3.5712	   3.571	  21.345
  427	  0.0484	  3.5787	   3.579	  21.395
  428	  0.0484	  3.5875	   3.587	  21.445
  429	  0.0492	  3.5950	   3.595	  21.495
  430	  0.0492	  3.6037	   3.604	  21.545
  431	  0.0488	  3.6125	   3.612	  21.595
  432	  0.0492	  3.6200	   3.620	  21.645
  433	  0.0492	  3.6287	   3.629	  21.695
  434	  0.0496	  3.6375	   3.637	  21.745
  435	  0.0496	  3.6463	   3.646	  21.795
  436	  0.0504	  3.6537	   3.654	  21.845
  437	  0.0500	  3.6625	   3.662	  21.895
  438	  0.0500	  3.6712	   3.671	  21.945
  439	  0.0500	  3.6787	   3.679	  21.995
  440	  0.0500	  3.6875	   3.688	  22.045
  441	  0.0504	  3.6962	   3.696	  22.095
  442	  0.0508	  3.7037	   3.704	  22.145
  443	  0.0508	  3.7125	   3.712	  22.195
  444	  0.0512	  3.7200	   3.720	  22.245
  445	  0.0508	  3.7287	   3.729	  22.295
  446	  0.0516	  3.7375	   3.737	  22.345
  447	  0.0516	  3.7450	   3.745	  22.395
  448	  0.0520	  3.7537	   3.754	  22.445
  449	  0.0512	  3.7625	   3.762	  22.495
  450	  0.0520	  3.7700	   3.770	  22.545
  451	  0.0524	  3.7787	   3.779	  22.595
  452	  0.0528	  3.7875	   3.787	  22.645
  453	  0.0528	  3.7950	   3.795	  22.695
  454	  0.0524	  3.8037	   3.804	  22.745
  455	  0.0528	  3.8125	   3.812	  22.795
  456	  0.0528	  3.8212	   3.821	  22.845
  457	  0.0524	  3.8287	   3.829	  22.895
  458	  0.0528	  3.8375	   3.837	  22.945
  459	  0.0528	  3.8462	   3.846	  22.995
  460	  0.0536	  3.8537	   3.854	  23.045
  461	  0.0532	  3.8625	   3.862	  23.095
  462	  0.0532	  3.8712	   3.871	  23.145
  463	  0.0532	  3.8787	   3.879	  23.195
  464	  0.0532	  3.8875	   3.887	  23.245
  465	  0.0536	  3.8963	   3.896	  23.295
  466	  0.0536	  3.9037	   3.904	  23.345
  467	  0.0540	  3.9125	   3.912	  23.395
  468	  0.0540	  3.9212	   3.921	  23.445
  469	  0.0548	  3.9287	   3.929	  23.495
  470	  0.0560	  3.9375	   3.938	  23.545
  471	  0.0552	  3.9462	   3.946	  23.595
  472	  0.0548	  3.9537	   3.954	  23.645
  473	  0.0560	  3.9625	   3.962	  23.695
  474	  0.0564	  3.9712	   3.971	  23.745
  475	  0.0560	  3.9800	   3.980	  23.795
  476	  0.0568	  3.9875	   3.987	  23.845
  477	  0.0568	  3.9962	   3.996	  23.895
  478	  0.0568	  4.0037	   4.004	  23.945
  479	  0.0572	  4.0125	   4.012	  23.995
  480	  0.0572	  4.0212	   4.021	  24.045
  481	  0.0576	  4.0287	   4.029	  24.095
  482	  0.0572	  4.0375	   4.037	  24.145
  483	  0.0576	  4.0462	   4.046	  24.195
  484	  0.0580	  4.0538	   4.054	  24.245
  485	  0.0580	  4.0625	   4.062	  24.295
  486	  0.0580	  4.0712	   4.071	  24.345
  487	  0.0576	  4.0800	   4.080	  24.395
  488	  0.0588	  4.0875	   4.088	  24.445
  489	  0.0584	  4.0963	   4.096	  24.495
  490	  0.0584	  4.1050	   4.105	  24.545
  491	  0.0588	  4.1137	   4.114	  24.595
  492	  0.0588	  4.1212	   4.121	  24.645
  493	  0.0584	  4.1300	   4.130	  24.695
  494	  0.0584	  4.1375	   4.137	  24.745
  495	  0.0596	  4.1462	   4.146	  24.795
  496	  0.0600	  4.1550	   4.155	  24.845
  497	  0.0604	  4.1625	   4.162	  24.895
  498	  0.0600	  4.1700	   4.170	  24.945
  499	  0.0600	  4.1788	   4.179	  24.995
  500	  0.0600	  4.1862	   4.186	  25.045
  501	  0.0604	  4.1950	   4.195	  25.095
  502	  0.0600	  4.2025	   4.202	  25.145
  503	  0.0604	  4.2112	   4.211	  25.195
  504	  0.0612	  4.2200	   4.220	  25.245
  505	  0.0612	  4.2287	   4.229	  25.295
  506	  0.0612	  4.2362	   4.236	  25.345
  507	  0.0616	  4.2450	   4.245	  25.395
  508	  0.0612	  4.2525	   4.253	  25.445
  509	  0.0616	  4.2613	   4.261	  25.495
  510	  0.0616	  4.2700	   4.270	  25.545
  511	  0.0616	  4.2775	   4.277	  25.595
  512	  0.0616	  4.2863	   4.286	  25.645
  513	  0.0608	  4.2937	   4.294	  25.695
  514	  0.0620	  4.3025	   4.302	  25.745
  515	  0.0620	  4.3112	   4.311	  25.795
  516	  0.0628	  4.3200	   4.320	  25.845
  517	  0.0620	  4.3275	   4.327	  25.895
  518	  0.0620	  4.3362	   4.336	  25.945
  519	  0.0624	  4.3450	   4.345	  25.995
  520	  0.0620	  4.3525	   4.352	  26.045
  521	  0.0620	  4.3612	   4.361	  26.095
  522	  0.0628	  4.3700	   4.370	  26.145
  523	  0.0632	  4.3775	   4.378	  26.195
  524	  0.0628	  4.3863	   4.386	  26.245
  525	  0.0632	  4.3950	   4.395	  26.295
  526	  0.0632	  4.4025	   4.402	  26.345
  527	  0.0640	  4.4113	   4.411	  26.395
  528	  0.0644	  4.4200	   4.420	  26.445
  529	  0.0636	  4.4288	   4.429	  26.495
  530	  0.0648	  4.4362	   4.436	  26.545
  531	  0.0648	  4.4450	   4.445	  26.595
  532	  0.0648	  4.4538	   4.454	  26.645
  533	  0.0656	  4.4612	   4.461	  26.695
  534	  0.0656	  4.4700	   4.470	  26.745
  535	  0.0648	  4.4787	   4.479	  26.795
  536	  0.0652	  4.4862	   4.486	  26.845
  537	  0.0648	  4.4950	   4.495	  26.895
  538	  0.0648	  4.5037	   4.504	  26.945
  539	  0.0652	  4.5113	   4.511	  26.995
  540	  0.0652	  4.5200	   4.520	  27.045
  541	  0.0652	  4.5287	   4.529	  27.095
  542	  0.0652	  4.5375	   4.537	  27.145
  543	  0.0656	  4.5450	   4.545	  27.195
  544	  0.0660	  4.5538	   4.554	  27.245
  545	  0.0664	  4.5625	   4.562	  27.295
  546	  0.0668	  4.5700	   4.570	  27.345
  547	  0.0668	  4.5788	   4.579	  27.395
  548	  0.0668	  4.5875	   4.588	  27.445
  549	  0.0676	  4.5950	   4.595	  27.495
  550	  0.0680	  4.6037	   4.604	  27.545
  551	  0.0680	  4.6125	   4.612	  27.595
  552	  0.0680	  4.6200	   4.620	  27.645
  553	  0.0688	  4.6287	   4.629	  27.695
  554	  0.0684	  4.6375	   4.637	  27.745
  555	  0.0688	  4.6462	   4.646	  27.795
  556	  0.0684	  4.6537	   4.654	  27.845
  557	  0.0684	  4.6625	   4.662	  27.895
  558	  0.0688	  4.6712	   4.671	  27.945
  559	  0.0688	  4.6788	   4.679	  27.995
  560	  0.0692	  4.6875	   4.688	  28.045
  561	  0.0692	  4.6962	   4.696	  28.095
  562	  0.0692	  4.7037	   4.704	  28.145
  563	  0.0696	  4.7125	   4.713	  28.195
  564	  0.0700	  4.7213	   4.721	  28.245
  565	  0.0700	  4.7287	   4.729	  28.295
  566	  0.0700	  4.7375	   4.737	  28.345
  567	  0.0704	  4.7462	   4.746	  28.395
  568	  0.0708	  4.7550	   4.755	  28.445
  569	  0.0708	  4.7625	   4.762	  28.495
  570	  0.0712	  4.7712	   4.771	  28.545
  571	  0.0704	  4.7800	   4.780	  28.595
  572	  0.0712	  4.7875	   4.787	  28.645
  573	  0.0716	  4.7962	   4.796	  28.695
  574	  0.0716	  4.8050	   4.805	  28.745
  575	  0.0720	  4.8125	   4.812	  28.795
  576	  0.0716	  4.8212	   4.821	  28.845
  577	  0.0720	  4.8300	   4.830	  28.895
  578	  0.0720	  4.8375	   4.838	  28.945
  579	  0.0728	  4.8463	   4.846	  28.995
  580	  0.0724	  4.8550	   4.855	  29.045
  581	  0.0728	  4.8625	   4.862	  29.095
  582	  0.0724	  4.8712	   4.871	  29.145
  583	  0.0736	  4.8800	   4.880	  29.195
  584	  0.0732	  4.8875	   4.887	  29.245
  585	  0.0732	  4.8962	   4.896	  29.295
  586	  0.0732	  4.9050	   4.905	  29.345
  587	  0.0740	  4.9137	   4.914	  29.395
  588	  0.0740	  4.9212	   4.921	  29.445
  589	  0.0740	  4.9300	   4.930	  29.495
  590	  0.0744	  4.9387	   4.939	  29.545
  591	  0.0736	  4.9475	   4.947	  29.595
  592	  0.0744	  4.9550	   4.955	  29.645
  593	  0.0748	  4.9637	   4.964	  29.695
  594	  0.0744	  4.9713	   4.971	  29.745
  595	  0.0748	  4.9800	   4.980	  29.795
  596	  0.0756	  4.9887	   4.989	  29.845
  597	  0.0756	  4.9962	   4.996	  29.895
  598	  0.0756	  5.0050	   5.005	  29.945
  599	  0.0764	  5.0138	   5.014	  29.995
  600	  0.0760	  5.0225	   5.023	  30.045
  601	  0.0764	  5.0300	   5.030	  30.095
  602	  0.0756	  5.0387	   5.039	  30.145
  603	  0.0752	  5.0475	   5.047	  30.195
  604	  0.0756	  5.0550	   5.055	  30.245
  605	  0.0764	  5.0637	   5.064	  30.295
  606	  0.0764	  5.0725	   5.072	  30.345
  607	  0.0768	  5.0800	   5.080	  30.395
  608	  0.0768	  5.0887	   5.089	  30.445
  609	  0.0764	  5.0975	   5.097	  30.495
  610	  0.0768	  5.1050	   5.105	  30.545
  611	  0.0768	  5.1137	   5.114	  30.595
  612	  0.0772	  5.1225	   5.122	  30.645
  613	  0.0776	  5.1300	   5.130	  30.695
  614	  0.0780	  5.1388	   5.139	  30.745
  615	  0.0780	  5.1475	   5.148	  30.795
  616	  0.0788	  5.1562	   5.156	  30.845
  617	  0.0788	  5.1637	   5.164	  30.895
  618	  0.0796	  5.1725	   5.172	  30.945
  619	  0.0792	  5.1813	   5.181	  30.995
  620	  0.0800	  5.1887	   5.189	  31.045
  621	  0.0800	  5.1975	   5.197	  31.095
  622	  0.0800	  5.2062	   5.206	  31.145
  623	  0.0792	  5.2137	   5.214	  31.195
  624	  0.0800	  5.2225	   5.222	  31.245
  625	  0.0812	  5.2312	   5.231	  31.295
  626	  0.0808	  5.2387	   5.239	  31.345
  627	  0.0804	  5.2475	   5.247	  31.395
  628	  0.0808	  5.2562	   5.256	  31.445
  629	  0.0808	  5.2638	   5.264	  31.495
  630	  0.0812	  5.2725	   5.273	  31.545
  631	  0.0812	  5.2812	   5.281	  31.595
  632	  0.0820	  5.2900	   5.290	  31.645
  633	  0.0820	  5.2975	   5.297	  31.695
  634	  0.0820	  5.3063	   5.306	  31.745
  635	  0.0820	  5.3150	   5.315	  31.795
  636	  0.0820	  5.3225	   5.322	  31.845
  637	  0.0824	  5.3312	   5.331	  31.895
  638	  0.0820	  5.3400	   5.340	  31.945
  639	  0.0820	  5.3475	   5.347	  31.995
  640	  0.0824	  5.3562	   5.356	  32.045
  641	  0.0828	  5.3650	   5.365	  32.095
  642	  0.0828	  5.3725	   5.372	  32.145
  643	  0.0828	  5.3812	   5.381	  32.195
  644	  0.0828	  5.3900	   5.390	  32.245
  645	  0.0836	  5.3987	   5.399	  32.295
  646	  0.0832	  5.4062	   5.406	  32.345
  647	  0.0832	  5.4150	   5.415	  32.395
  648	  0.0836	  5.4237	   5.424	  32.445
  649	  0.0836	  5.4313	   5.431	  32.495
  650	  0.0840	  5.4400	   5.440	  32.545
  651	  0.0840	  5.4488	   5.449	  32.595
  652	  0.0840	  5.4575	   5.457	  32.645
  653	  0.0840	  5.4650	   5.465	  32.695
  654	  0.0840	  5.4738	   5.474	  32.745
  655	  0.0840	  5.4825	   5.483	  32.795
  656	  0.0844	  5.4913	   5.491	  32.845
  657	  0.0836	  5.4987	   5.499	  32.895
  658	  0.0844	  5.5075	   5.507	  32.945
  659	  0.0852	  5.5162	   5.516	  32.995
  660	  0.0852	  5.5237	   5.524	  33.045
  661	  0.0856	  5.5325	   5.532	  33.095
  662	  0.0856	  5.5412	   5.541	  33.145
  663	  0.0856	  5.5487	   5.549	  33.195
  664	  0.0864	  5.5575	   5.557	  33.245
  665	  0.0868	  5.5662	   5.566	  33.295
  666	  0.0864	  5.5750	   5.575	  33.345
  667	  0.0864	  5.5825	   5.582	  33.395
  668	  0.0864	  5.5912	   5.591	  33.445
  669	  0.0872	  5.6000	   5.600	  33.495
  670	  0.0868	  5.6075	   5.608	  33.545
  671	  0.0872	  5.6163	   5.616	  33.595
  672	  0.0876	  5.6250	   5.625	  33.645
  673	  0.0872	  5.6325	   5.632	  33.695
  674	  0.0868	  5.6412	   5.641	  33.745
  675	  0.0872	  5.6500	   5.650	  33.795
  676	  0.0876	  5.6588	   5.659	  33.845
  677	  0.0872	  5.6662	   5.666	  33.895
  678	  0.0880	  5.6750	   5.675	  33.945
  679	  0.0880	  5.6837	   5.684	  33.995
  680	  0.0880	  5.6925	   5.692	  34.045
  681	  0.0880	  5.7000	   5.700	  34.095
  682	  0.0884	  5.7087	   5.709	  34.145
  683	  0.0892	  5.7175	   5.717	  34.195
  684	  0.0892	  5.7262	   5.726	  34.245
  685	  0.0892	  5.7337	   5.734	  34.295
  686	  0.0892	  5.7425	   5.742	  34.345
  687	  0.0896	  5.7512	   5.751	  34.395
  688	  0.0904	  5.7587	   5.759	  34.445
  689	  0.0904	  5.7675	   5.767	  34.495
  690	  0.0904	  5.7762	   5.776	  34.545
  691	  0.0908	  5.7850	   5.785	  34.595
  692	  0.0908	  5.7925	   5.793	  34.645
  693	  0.0908	  5.8012	   5.801	  34.695
  694	  0.0904	  5.8100	   5.810	  34.745
  695	  0.0908	  5.8175	   5.817	  34.795
  696	  0.0908	  5.8263	   5.826	  34.845
  697	  0.0904	  5.8350	   5.835	  34.895
  698	  0.0908	  5.8425	   5.842	  34.945
  699	  0.0912	  5.8512	   5.851	  34.995
  700	  0.0912	  5.8600	   5.860	  35.045
  701	  0.0912	  5.8688	   5.869	  35.095
  702	  0.0912	  5.8762	   5.876	  35.145
  703	  0.0912	  5.8850	   5.885	  35.195
  704	  0.0912	  5.8937	   5.894	  35.245
  705	  0.0920	  5.9025	   5.902	  35.295
  706	  0.0924	  5.9100	   5.910	  35.345
  707	  0.0920	  5.9187	   5.919	  35.395
  708	  0.0924	  5.9275	   5.927	  35.445
  709	  0.0920	  5.9350	   5.935	  35.495
  710	  0.0924	  5.9437	   5.944	  35.545
  711	  0.0932	  5.9525	   5.952	  35.595
  712	  0.0932	  5.9600	   5.960	  35.645
  713	  0.0932	  5.9688	   5.969	  35.695
  714	  0.0936	  5.9775	   5.977	  35.745
  715	  0.0932	  5.9862	   5.986	  35.795
  716	  0.0940	  5.9938	   5.994	  35.845
  717	  0.0936	  6.0025	   6.003	  35.895
  718	  0.0932	  6.0113	   6.011	  35.945
  719	  0.0936	  6.0187	   6.019	  35.995
  720	  0.0944	  6.0275	   6.027	  36.045
  721	  0.0944	  6.0362	   6.036	  36.095
  722	  0.0936	  6.0450	   6.045	  36.145
  723	  0.0940	  6.0525	   6.052	  36.195
  724	  0.0944	  6.0612	   6.061	  36.245
  725	  0.0952	  6.0700	   6.070	  36.295
  726	  0.0948	  6.0787	   6.079	  36.345
  727	  0.0952	  6.0862	   6.086	  36.395
  728	  0.0952	  6.0950	   6.095	  36.445
  729	  0.0952	  6.1025	   6.102	  36.495
  730	  0.0952	  6.1112	   6.111	  36.545
  731	  0.0948	  6.1200	   6.120	  36.595
  732	  0.0948	  6.1275	   6.128	  36.645
  733	  0.0952	  6.1363	   6.136	  36.695
  734	  0.0964	  6.1450	   6.145	  36.745
  735	  0.0964	  6.1537	   6.154	  36.795
  736	  0.0964	  6.1612	   6.161	  36.845
  737	  0.0960	  6.1700	   6.170	  36.895
  738	  0.0956	  6.1788	   6.179	  36.945
  739	  0.0964	  6.1862	   6.186	  36.995
  740	  0.0964	  6.1950	   6.195	  37.045
  741	  0.0968	  6.2037	   6.204	  37.095
  742	  0.0968	  6.2125	   6.213	  37.145
  743	  0.0972	  6.2200	   6.220	  37.195
  744	  0.0968	  6.2287	   6.229	  37.245
  745	  0.0972	  6.2375	   6.237	  37.295
  746	  0.0980	  6.2450	   6.245	  37.345
  747	  0.0980	  6.2537	   6.254	  37.395
  748	  0.0980	  6.2625	   6.262	  37.445
  749	  0.0976	  6.2700	   6.270	  37.495
  750	  0.0980	  6.2787	   6.279	  37.545
  751	  0.0980	  6.2875	   6.287	  37.595
  752	  0.0980	  6.2962	   6.296	  37.645
  753	  0.0984	  6.3038	   6.304	  37.695
  754	  0.0984	  6.3125	   6.312	  37.745
  755	  0.0988	  6.3212	   6.321	  37.795
  756	  0.0988	  6.3287	   6.329	  37.845
  757	  0.0988	  6.3375	   6.338	  37.895
  758	  0.0996	  6.3463	   6.346	  37.945
  759	  0.0996	  6.3537	   6.354	  37.995
  760	  0.0992	  6.3625	   6.362	  38.045
  761	  0.0992	  6.3712	   6.371	  38.095
  762	  0.1000	  6.3787	   6.379	  38.145
  763	  0.1000	  6.3875	   6.387	  38.195
  764	  0.1004	  6.3962	   6.396	  38.245
  765	  0.1004	  6.4050	   6.405	  38.295
  766	  0.1000	  6.4125	   6.412	  38.345
  767	  0.1008	  6.4212	   6.421	  38.395
  768	  0.1008	  6.4300	   6.430	  38.445
  769	  0.1012	  6.4375	   6.438	  38.495
  770	  0.1016	  6.4462	   6.446	  38.545
  771	  0.1012	  6.4550	   6.455	  38.595
  772	  0.1012	  6.4637	   6.464	  38.645
  773	  0.1016	  6.4713	   6.471	  38.695
  774	  0.1016	  6.4800	   6.480	  38.745
  775	  0.1020	  6.4887	   6.489	  38.795
  776	  0.1028	  6.4962	   6.496	  38.845
  777	  0.1028	  6.5050	   6.505	  38.895
  778	  0.1024	  6.5138	   6.514	  38.945
  779	  0.1020	  6.5212	   6.521	  38.995
  780	  0.1028	  6.5300	   6.530	  39.045
  781	  0.1024	  6.5387	   6.539	  39.095
  782	  0.1032	  6.5475	   6.547	  39.145
  783	  0.1028	  6.5550	   6.555	  39.195
  784	  0.1032	  6.5637	   6.564	  39.245
  785	  0.1032	  6.5725	   6.572	  39.295
  786	  0.1032	  6.5812	   6.581	  39.345
  787	  0.1040	  6.5887	   6.589	  39.395
  788	  0.1040	  6.5975	   6.597	  39.445
  789	  0.1040	  6.6062	   6.606	  39.495
  790	  0.1044	  6.6137	   6.614	  39.545
  791	  0.1044	  6.6225	   6.622	  39.595
  792	  0.1044	  6.6312	   6.631	  39.645
  793	  0.1044	  6.6388	   6.639	  39.695
  794	  0.1052	  6.6475	   6.648	  39.745
  795	  0.1056	  6.6562	   6.656	  39.795
  796	  0.1052	  6.6650	   6.665	  39.845
  797	  0.1048	  6.6725	   6.672	  39.895
  798	  0.1048	  6.6812	   6.681	  39.945
  799	  0.1052	  6.6900	   6.690	  39.995
  800	  0.1044	  6.6975	   6.697	  40.045
  801	  0.1052	  6.7062	   6.706	  40.095
  802	  0.1052	  6.7150	   6.715	  40.145
  803	  0.1056	  6.7225	   6.722	  40.195
  804	  0.1056	  6.7312	   6.731	  40.245
  805	  0.1060	  6.7400	   6.740	  40.295
  806	  0.1060	  6.7487	   6.749	  40.345
  807	  0.1068	  6.7562	   6.756	  40.395
  808	  0.1060	  6.7650	   6.765	  40.445
  809	  0.1064	  6.7737	   6.774	  40.495
  810	  0.1072	  6.7812	   6.781	  40.545
  811	  0.1072	  6.7900	   6.790	  40.595
  812	  0.1072	  6.7987	   6.799	  40.645
  813	  0.1064	  6.8062	   6.806	  40.695
  814	  0.1072	  6.8150	   6.815	  40.745
  815	  0.1080	  6.8238	   6.824	  40.795
  816	  0.1072	  6.8325	   6.832	  40.845
  817	  0.1076	  6.8400	   6.840	  40.895
  818	  0.1076	  6.8487	   6.849	  40.945
  819	  0.1080	  6.8575	   6.858	  40.995
  820	  0.1076	  6.8663	   6.866	  41.045
  821	  0.1076	  6.8737	   6.874	  41.095
  822	  0.1084	  6.8825	   6.882	  41.145
  823	  0.1088	  6.8912	   6.891	  41.195
  824	  0.1084	  6.8987	   6.899	  41.245
  825	  0.1088	  6.9075	   6.907	  41.295
  826	  0.1084	  6.9162	   6.916	  41.345
  827	  0.1092	  6.9237	   6.924	  41.395
  828	  0.1096	  6.9325	   6.932	  41.445
  829	  0.1092	  6.9412	   6.941	  41.495
  830	  0.1096	  6.9488	   6.949	  41.545
  831	  0.1100	  6.9575	   6.957	  41.595
  832	  0.1096	  6.9662	   6.966	  41.645
  833	  0.1088	  6.9737	   6.974	  41.695
  834	  0.1096	  6.9825	   6.983	  41.745
  835	  0.1096	  6.9913	   6.991	  41.795
  836	  0.1100	  7.0000	   7.000	  41.845
  837	  0.1096	  7.0075	   7.007	  41.895
  838	  0.1108	  7.0162	   7.016	  41.945
  839	  0.1108	  7.0250	   7.025	  41.995
  840	  0.1100	  7.0325	   7.032	  42.045
  841	  0.1104	  7.0412	   7.041	  42.095
  842	  0.1108	  7.0500	   7.050	  42.145
  843	  0.1108	  7.0575	   7.057	  42.195
  844	  0.1112	  7.0662	   7.066	  42.245
  845	  0.1112	  7.0750	   7.075	  42.295
  846	  0.1108	  7.0825	   7.082	  42.345
  847	  0.1120	  7.0912	   7.091	  42.395
  848	  0.1112	  7.1000	   7.100	  42.445
  849	  0.1120	  7.1075	   7.108	  42.495
  850	  0.1116	  7.1163	   7.116	  42.545
  851	  0.1120	  7.1250	   7.125	  42.595
  852	  0.1120	  7.1325	   7.132	  42.645
  853	  0.1120	  7.1412	   7.141	  42.695
  854	  0.1124	  7.1500	   7.150	  42.745
  855	  0.1128	  7.1588	   7.159	  42.795
  856	  0.1128	  7.1662	   7.166	  42.845
  857	  0.1124	  7.1750	   7.175	  42.895
  858	  0.1132	  7.1825	   7.182	  42.945
  859	  0.1128	  7.1912	   7.191	  42.995
  860	  0.1136	  7.2000	   7.200	  43.045
  861	  0.1132	  7.2087	   7.209	  43.095
  862	  0.1132	  7.2162	   7.216	  43.145
  863	  0.1136	  7.2250	   7.225	  43.195
  864	  0.1140	  7.2325	   7.233	  43.245
  865	  0.1136	  7.2413	   7.241	  43.295
  866	  0.1140	  7.2500	   7.250	  43.345
  867	  0.1140	  7.2587	   7.259	  43.395
  868	  0.1144	  7.2662	   7.266	  43.445
  869	  0.1148	  7.2750	   7.275	  43.495
  870	  0.1144	  7.2838	   7.284	  43.545
  871	  0.1140	  7.2912	   7.291	  43.595
  872	  0.1140	  7.3000	   7.300	  43.645
  873	  0.1148	  7.3087	   7.309	  43.695
  874	  0.1144	  7.3162	   7.316	  43.745
  875	  0.1152	  7.3250	   7.325	  43.795
  876	  0.1152	  7.3337	   7.334	  43.845
  877	  0.1160	  7.3412	   7.341	  43.895
  878	  0.1164	  7.3500	   7.350	  43.945
  879	  0.1160	  7.3587	   7.359	  43.995
  880	  0.1164	  7.3663	   7.366	  44.045
  881	  0.1164	  7.3750	   7.375	  44.095
  882	  0.1168	  7.3837	   7.384	  44.145
  883	  0.1164	  7.3912	   7.391	  44.195
  884	  0.1168	  7.4000	   7.400	  44.245
  885	  0.1172	  7.4088	   7.409	  44.295
  886	  0.1168	  7.4162	   7.416	  44.345
  887	  0.1172	  7.4250	   7.425	  44.395
  888	  0.1168	  7.4337	   7.434	  44.445
  889	  0.1172	  7.4412	   7.441	  44.495
  890	  0.1168	  7.4500	   7.450	  44.545
  891	  0.1168	  7.4587	   7.459	  44.595
  892	  0.1168	  7.4662	   7.466	  44.645
  893	  0.1172	  7.4750	   7.475	  44.695
  894	  0.1172	  7.4837	   7.484	  44.745
  895	  0.1176	  7.4913	   7.491	  44.795
  896	  0.1176	  7.5000	   7.500	  44.845
  897	  0.1176	  7.5087	   7.509	  44.895
  898	  0.1180	  7.5162	   7.516	  44.945
  899	  0.1172	  7.5250	   7.525	  44.995
  900	  0.1180	  7.5338	   7.534	  45.045
  901	  0.1180	  7.5412	   7.541	  45.095
  902	  0.1180	  7.5500	   7.550	  45.145
  903	  0.1184	  7.5587	   7.559	  45.195
  904	  0.1188	  7.5662	   7.566	  45.245
  905	  0.1188	  7.5750	   7.575	  45.295
  906	  0.1192	  7.5837	   7.584	  45.345
  907	  0.1192	  7.5912	   7.591	  45.395
  908	  0.1196	  7.6000	   7.600	  45.445
  909	  0.1196	  7.6087	   7.609	  45.495
  910	  0.1196	  7.6163	   7.616	  45.545
  911	  0.1196	  7.6250	   7.625	  45.595
  912	  0.1204	  7.6337	   7.634	  45.645
  913	  0.1208	  7.6412	   7.641	  45.695
  914	  0.1208	  7.6500	   7.650	  45.745
  915	  0.1204	  7.6588	   7.659	  45.795
  916	  0.1200	  7.6662	   7.666	  45.845
  917	  0.1204	  7.6750	   7.675	  45.895
  918	  0.1208	  7.6837	   7.684	  45.945
  919	  0.1208	  7.6912	   7.691	  45.995
  920	  0.1212	  7.7000	   7.700	  46.045
  921	  0.1212	  7.7087	   7.709	  46.095
  922	  0.1216	  7.7162	   7.716	  46.145
  923	  0.1212	  7.7250	   7.725	  46.195
  924	  0.1212	  7.7325	   7.732	  46.245
  925	  0.1220	  7.7413	   7.741	  46.295
  926	  0.1224	  7.7500	   7.750	  46.345
  927	  0.1224	  7.7587	   7.759	  46.395
  928	  0.1220	  7.7662	   7.766	  46.445
  929	  0.1220	  7.7750	   7.775	  46.495
  930	  0.1228	  7.7838	   7.784	  46.545
  931	  0.1228	  7.7912	   7.791	  46.595
  932	  0.1228	  7.8000	   7.800	  46.645
  933	  0.1228	  7.8087	   7.809	  46.695
  934	  0.1224	  7.8162	   7.816	  46.745
  935	  0.1228	  7.8250	   7.825	  46.795
  936	  0.1232	  7.8337	   7.834	  46.845
  937	  0.1228	  7.8425	   7.842	  46.895
  938	  0.1228	  7.8500	   7.850	  46.945
  939	  0.1232	  7.8587	   7.859	  46.995
  940	  0.1236	  7.8675	   7.867	  47.045
  941	  0.1232	  7.8750	   7.875	  47.095
  942	  0.1232	  7.8837	   7.884	  47.145
  943	  0.1236	  7.8912	   7.891	  47.195
  944	  0.1236	  7.9000	   7.900	  47.245
  945	  0.1240	  7.9088	   7.909	  47.295
  946	  0.1244	  7.9162	   7.916	  47.345
  947	  0.1240	  7.9250	   7.925	  47.395
  948	  0.1240	  7.9337	   7.934	  47.445
  949	  0.1236	  7.9412	   7.941	  47.495
  950	  0.1244	  7.9500	   7.950	  47.545
  951	  0.1248	  7.9587	   7.959	  47.595
  952	  0.1244	  7.9675	   7.967	  47.645
  953	  0.1252	  7.9750	   7.975	  47.695
  954	  0.1248	  7.9837	   7.984	  47.745
  955	  0.1256	  7.9925	   7.992	  47.795
  956	  0.1248	  8.0000	   8.000	  47.845
  957	  0.1256	  8.0087	   8.009	  47.895
  958	  0.1256	  8.0162	   8.016	  47.945
  959	  0.1256	  8.0250	   8.025	  47.995
  960	  0.1260	  8.0337	   8.034	  48.045
  961	  0.1260	  8.0425	   8.042	  48.095
  962	  0.1260	  8.0500	   8.050	  48.145
  963	  0.1264	  8.0588	   8.059	  48.195
  964	  0.1268	  8.0662	   8.066	  48.245
  965	  0.1272	  8.0750	   8.075	  48.295
  966	  0.1272	  8.0837	   8.084	  48.345
  967	  0.1268	  8.0925	   8.092	  48.395
  968	  0.1268	  8.1000	   8.100	  48.445
  969	  0.1272	  8.1087	   8.109	  48.495
  970	  0.1272	  8.1175	   8.117	  48.545
  971	  0.1276	  8.1250	   8.125	  48.595
  972	  0.1280	  8.1337	   8.134	  48.645
  973	  0.1280	  8.1425	   8.142	  48.695
  974	  0.1288	  8.1500	   8.150	  48.745
  975	  0.1288	  8.1587	   8.159	  48.795
  976	  0.1284	  8.1675	   8.167	  48.845
  977	  0.1292	  8.1750	   8.175	  48.895
  978	  0.1288	  8.1838	   8.184	  48.945
  979	  0.1288	  8.1912	   8.191	  48.995
  980	  0.1288	  8.2000	   8.200	  49.045
  981	  0.1284	  8.2087	   8.209	  49.095
  982	  0.1292	  8.2175	   8.217	  49.145
  983	  0.1292	  8.2250	   8.225	  49.195
  984	  0.1296	  8.2337	   8.234	  49.245
  985	  0.1288	  8.2425	   8.242	  49.295
  986	  0.1296	  8.2500	   8.250	  49.345
  987	  0.1292	  8.2587	   8.259	  49.395
  988	  0.1296	  8.2675	   8.267	  49.445
  989	  0.1304	  8.2750	   8.275	  49.495
  990	  0.1292	  8.2837	   8.284	  49.545
  991	  0.1296	  8.2925	   8.292	  49.595
  992	  0.1300	  8.3000	   8.300	  49.645
  993	  0.1304	  8.3088	   8.309	  49.695
  994	  0.1300	  8.3162	   8.316	  49.745
  995	  0.1300	  8.3250	   8.325	  49.795
  996	  0.1300	  8.3337	   8.334	  49.845
  997	  0.1304	  8.3425	   8.342	  49.895
  998	  0.1304	  8.3500	   8.350	  49.945
  999	  0.1312	  8.3587	   8.359	  49.995
 1000	  0.1308	  8.3675	   8.367	  50.045
 1001	  0.1304	  8.3750	   8.375	  50.095
 1002	  0.1308	  8.3837	   8.384	  50.145
 1003	  0.1308	  8.3925	   8.392	  50.195
 1004	  0.1308	  8.4000	   8.400	  50.245
 1005	  0.1316	  8.4087	   8.409	  50.295
 1006	  0.1316	  8.4175	   8.417	  50.345
 1007	  0.1320	  8.4250	   8.425	  50.395
 1008	  0.1320	  8.4338	   8.434	  50.445
 1009	  0.1324	  8.4412	   8.441	  50.495
 1010	  0.1324	  8.4500	   8.450	  50.545
 1011	  0.1332	  8.4587	   8.459	  50.595
 1012	  0.1332	  8.4662	   8.466	  50.645
 1013	  0.1332	  8.4750	   8.475	  50.695
 1014	  0.1328	  8.4837	   8.484	  50.745
 1015	  0.1324	  8.4925	   8.492	  50.795
 1016	  0.1332	  8.5000	   8.500	  50.845
 1017	  0.1324	  8.5087	   8.509	  50.895
 1018	  0.1332	  8.5175	   8.517	  50.945
 1019	  0.1328	  8.5250	   8.525	  50.995
 1020	  0.1328	  8.5337	   8.534	  51.045
 1021	  0.1340	  8.5425	   8.542	  51.095
 1022	  0.1332	  8.5500	   8.550	  51.145
 1023	  0.1336	  8.5588	   8.559	  51.195
 1024	  0.1340	  8.5675	   8.568	  51.245
 1025	  0.1336	  8.5750	   8.575	  51.295
 1026	  0.1340	  8.5837	   8.584	  51.345
 1027	  0.1340	  8.5925	   8.592	  51.395
 1028	  0.1340	  8.6000	   8.600	  51.445
 1029	  0.1344	  8.6087	   8.609	  51.495
 1030	  0.1348	  8.6175	   8.617	  51.545
 1031	  0.1352	  8.6250	   8.625	  51.595
 1032	  0.1348	  8.6337	   8.634	  51.645
 1033	  0.1348	  8.6425	   8.642	  51.695
 1034	  0.1356	  8.6500	   8.650	  51.745
 1035	  0.1356	  8.6587	   8.659	  51.795
 1036	  0.1356	  8.6675	   8.667	  51.845
 1037	  0.1356	  8.6750	   8.675	  51.895
 1038	  0.1356	  8.6838	   8.684	  51.945
 1039	  0.1352	  8.6925	   8.693	  51.995
 1040	  0.1352	  8.7013	   8.701	  52.045
 1041	  0.1356	  8.7087	   8.709	  52.095
 1042	  0.1352	  8.7175	   8.717	  52.145
 1043	  0.1356	  8.7250	   8.725	  52.195
 1044	  0.1360	  8.7337	   8.734	  52.245
 1045	  0.1356	  8.7425	   8.742	  52.295
 1046	  0.1356	  8.7500	   8.750	  52.345
 1047	  0.1360	  8.7587	   8.759	  52.395
 1048	  0.1360	  8.7675	   8.767	  52.445
 1049	  0.1364	  8.7750	   8.775	  52.495
 1050	  0.1364	  8.7837	   8.784	  52.545
 1051	  0.1364	  8.7925	   8.792	  52.595
 1052	  0.1368	  8.8012	   8.801	  52.645
 1053	  0.1372	  8.8088	   8.809	  52.695
 1054	  0.1372	  8.8175	   8.818	  52.745
 1055	  0.1368	  8.8263	   8.826	  52.795
 1056	  0.1368	  8.8337	   8.834	  52.845
 1057	  0.1376	  8.8425	   8.842	  52.895
 1058	  0.1372	  8.8512	   8.851	  52.945
 1059	  0.1376	  8.8587	   8.859	  52.995
 1060	  0.1376	  8.8675	   8.867	  53.045
 1061	  0.1376	  8.8763	   8.876	  53.095
 1062	  0.1384	  8.8837	   8.884	  53.145
 1063	  0.1384	  8.8925	   8.892	  53.195
 1064	  0.1376	  8.9012	   8.901	  53.245
 1065	  0.1380	  8.9087	   8.909	  53.295
 1066	  0.1380	  8.9175	   8.917	  53.345
 1067	  0.1376	  8.9262	   8.926	  53.395
 1068	  0.1384	  8.9338	   8.934	  53.445
 1069	  0.1388	  8.9425	   8.943	  53.495
 1070	  0.1396	  8.9513	   8.951	  53.545
 1071	  0.1388	  8.9600	   8.960	  53.595
 1072	  0.1396	  8.9675	   8.967	  53.645
 1073	  0.1396	  8.9762	   8.976	  53.695
 1074	  0.1392	  8.9837	   8.984	  53.745
 1075	  0.1388	  8.9925	   8.992	  53.795
 1076	  0.1392	  9.0013	   9.001	  53.845
 1077	  0.1388	  9.0087	   9.009	  53.895
 1078	  0.1392	  9.0175	   9.017	  53.945
 1079	  0.1392	  9.0262	   9.026	  53.995
 1080	  0.1392	  9.0350	   9.035	  54.045
 1081	  0.1396	  9.0425	   9.042	  54.095
 1082	  0.1392	  9.0512	   9.051	  54.145
 1083	  0.1396	  9.0600	   9.060	  54.195
 1084	  0.1396	  9.0675	   9.068	  54.245
 1085	  0.1396	  9.0763	   9.076	  54.295
 1086	  0.1400	  9.0850	   9.085	  54.345
 1087	  0.1404	  9.0938	   9.094	  54.395
 1088	  0.1412	  9.1012	   9.101	  54.445
 1089	  0.1412	  9.1100	   9.110	  54.495
 1090	  0.1408	  9.1187	   9.119	  54.545
 1091	  0.1412	  9.1263	   9.126	  54.595
 1092	  0.1420	  9.1350	   9.135	  54.645
 1093	  0.1412	  9.1438	   9.144	  54.695
 1094	  0.1408	  9.1512	   9.151	  54.745
 1095	  0.1412	  9.1600	   9.160	  54.795
 1096	  0.1416	  9.1687	   9.169	  54.845
 1097	  0.1412	  9.1762	   9.176	  54.895
 1098	  0.1420	  9.1850	   9.185	  54.945
 1099	  0.1424	  9.1937	   9.194	  54.995
 1100	  0.1420	  9.2025	   9.202	  55.045
 1101	  0.1420	  9.2100	   9.210	  55.095
 1102	  0.1420	  9.2188	   9.219	  55.145
 1103	  0.1424	  9.2262	   9.226	  55.195
 1104	  0.1424	  9.2350	   9.235	  55.245
 1105	  0.1424	  9.2437	   9.244	  55.295
 1106	  0.1424	  9.2513	   9.251	  55.345
 1107	  0.1428	  9.2600	   9.260	  55.395
 1108	  0.1420	  9.2688	   9.269	  55.445
 1109	  0.1424	  9.2762	   9.276	  55.495
 1110	  0.1428	  9.2850	   9.285	  55.545
 1111	  0.1428	  9.2937	   9.294	  55.595
 1112	  0.1428	  9.3012	   9.301	  55.645
 1113	  0.1432	  9.3100	   9.310	  55.695
 1114	  0.1432	  9.3187	   9.319	  55.745
 1115	  0.1436	  9.3275	   9.327	  55.795
 1116	  0.1440	  9.3350	   9.335	  55.845
 1117	  0.1436	  9.3438	   9.344	  55.895
 1118	  0.1436	  9.3525	   9.352	  55.945
 1119	  0.1436	  9.3600	   9.360	  55.995
 1120	  0.1440	  9.3687	   9.369	  56.045
 1121	  0.1440	  9.3775	   9.377	  56.095
 1122	  0.1436	  9.3850	   9.385	  56.145
 1123	  0.1444	  9.3938	   9.394	  56.195
 1124	  0.1444	  9.4025	   9.403	  56.245
 1125	  0.1448	  9.4100	   9.410	  56.295
 1126	  0.1444	  9.4187	   9.419	  56.345
 1127	  0.1444	  9.4275	   9.427	  56.395
 1128	  0.1444	  9.4350	   9.435	  56.445
 1129	  0.1440	  9.4437	   9.444	  56.495
 1130	  0.1444	  9.4525	   9.452	  56.545
 1131	  0.1444	  9.4600	   9.460	  56.595
 1132	  0.1444	  9.4688	   9.469	  56.645
 1133	  0.1448	  9.4775	   9.477	  56.695
 1134	  0.1444	  9.4850	   9.485	  56.745
 1135	  0.1452	  9.4937	   9.494	  56.795
 1136	  0.1448	  9.5025	   9.502	  56.845
 1137	  0.1456	  9.5100	   9.510	  56.895
 1138	  0.1456	  9.5188	   9.519	  56.945
 1139	  0.1452	  9.5275	   9.528	  56.995
 1140	  0.1456	  9.5350	   9.535	  57.045
 1141	  0.1456	  9.5437	   9.544	  57.095
 1142	  0.1456	  9.5525	   9.552	  57.145
 1143	  0.1452	  9.5600	   9.560	  57.195
 1144	  0.1456	  9.5687	   9.569	  57.245
 1145	  0.1460	  9.5775	   9.577	  57.295
 1146	  0.1460	  9.5850	   9.585	  57.345
 1147	  0.1464	  9.5938	   9.594	  57.395
 1148	  0.1464	  9.6025	   9.602	  57.445
 1149	  0.1468	  9.6100	   9.610	  57.495
 1150	  0.1464	  9.6187	   9.619	  57.545
 1151	  0.1464	  9.6275	   9.627	  57.595
 1152	  0.1468	  9.6362	   9.636	  57.645
 1153	  0.1472	  9.6438	   9.644	  57.695
 1154	  0.1476	  9.6525	   9.653	  57.745
 1155	  0.1476	  9.6613	   9.661	  57.795
 1156	  0.1480	  9.6700	   9.670	  57.845
 1157	  0.1476	  9.6775	   9.677	  57.895
 1158	  0.1480	  9.6862	   9.686	  57.945
 1159	  0.1476	  9.6937	   9.694	  57.995
 1160	  0.1480	  9.7025	   9.702	  58.045
 1161	  0.1484	  9.7112	   9.711	  58.095
 1162	  0.1480	  9.7200	   9.720	  58.145
 1163	  0.1480	  9.7275	   9.727	  58.195
 1164	  0.1488	  9.7362	   9.736	  58.245
 1165	  0.1484	  9.7450	   9.745	  58.295
 1166	  0.1488	  9.7525	   9.752	  58.345
 1167	  0.1492	  9.7612	   9.761	  58.395
 1168	  0.1492	  9.7700	   9.770	  58.445
 1169	  0.1488	  9.7787	   9.779	  58.495
 1170	  0.1492	  9.7863	   9.786	  58.545
 1171	  0.1492	  9.7950	   9.795	  58.595
 1172	  0.1492	  9.8038	   9.804	  58.645
 1173	  0.1496	  9.8112	   9.811	  58.695
 1174	  0.1492	  9.8200	   9.820	  58.745
 1175	  0.1496	  9.8287	   9.829	  58.795
 1176	  0.1504	  9.8362	   9.836	  58.845
 1177	  0.1500	  9.8450	   9.845	  58.895
 1178	  0.1504	  9.8538	   9.854	  58.945
 1179	  0.1500	  9.8612	   9.861	  58.995
 1180	  0.1500	  9.8700	   9.870	  59.045
 1181	  0.1492	  9.8787	   9.879	  59.095
 1182	  0.1492	  9.8875	   9.887	  59.145
 1183	  0.1500	  9.8950	   9.895	  59.195
 1184	  0.1500	  9.9037	   9.904	  59.245
 1185	  0.1504	  9.9125	   9.912	  59.295
 1186	  0.1504	  9.9212	   9.921	  59.345
 1187	  0.1516	  9.9288	   9.929	  59.395
 1188	  0.1516	  9.9375	   9.938	  59.445
 1189	  0.1516	  9.9462	   9.946	  59.495
 1190	  0.1508	  9.9550	   9.955	  59.545
 1191	  0.1512	  9.9625	   9.962	  59.595
 1192	  0.1512	  9.9712	   9.971	  59.645
 1193	  0.1512	  9.9800	   9.980	  59.695
 1194	  0.1512	  9.9875	   9.988	  59.745
 1195	  0.1520	  9.9963	   9.996	  59.795
 1196	  0.1520	 10.0050	  10.005	  59.845
 1197	  0.1524	 10.0125	  10.012	  59.895
 1198	  0.1524	 10.0212	  10.021	  59.945
 1199	  0.1524	 10.0300	  10.030	  59.995
 1200	  0.1520	 10.0387	  10.039	  60.045
 1201	  0.1520	 10.0462	  10.046	  60.095
 1202	  0.1528	 10.0550	  10.055	  60.145
 1203	  0.1528	 10.0637	  10.064	  60.195
 1204	  0.1528	 10.0725	  10.073	  60.245
 1205	  0.1528	 10.0800	  10.080	  60.295
 1206	  0.1528	 10.0887	  10.089	  60.345
 1207	  0.1528	 10.0975	  10.097	  60.395
 1208	  0.1528	 10.1050	  10.105	  60.445
 1209	  0.1528	 10.1137	  10.114	  60.495
 1210	  0.1528	 10.1225	  10.122	  60.545
 1211	  0.1528	 10.1312	  10.131	  60.595
 1212	  0.1532	 10.1388	  10.139	  60.645
 1213	  0.1532	 10.1475	  10.148	  60.695
 1214	  0.1532	 10.1562	  10.156	  60.745
 1215	  0.1532	 10.1650	  10.165	  60.795
 1216	  0.1536	 10.1725	  10.172	  60.845
 1217	  0.1536	 10.1812	  10.181	  60.895
 1218	  0.1540	 10.1900	  10.190	  60.945
 1219	  0.1544	 10.1987	  10.199	  60.995
 1220	  0.1536	 10.2063	  10.206	  61.045
 1221	  0.1544	 10.2150	  10.215	  61.095
 1222	  0.1544	 10.2238	  10.224	  61.145
 1223	  0.1544	 10.2325	  10.233	  61.195
 1224	  0.1540	 10.2400	  10.240	  61.245
 1225	  0.1540	 10.2487	  10.249	  61.295
 1226	  0.1536	 10.2575	  10.257	  61.345
 1227	  0.1544	 10.2650	  10.265	  61.395
 1228	  0.1540	 10.2737	  10.274	  61.445
 1229	  0.1548	 10.2825	  10.282	  61.495
 1230	  0.1548	 10.2900	  10.290	  61.545
 1231	  0.1540	 10.2987	  10.299	  61.595
 1232	  0.1540	 10.3075	  10.307	  61.645
 1233	  0.1544	 10.3162	  10.316	  61.695
 1234	  0.1548	 10.3237	  10.324	  61.745
 1235	  0.1544	 10.3325	  10.332	  61.795
 1236	  0.1552	 10.3412	  10.341	  61.845
 1237	  0.1552	 10.3500	  10.350	  61.895
 1238	  0.1552	 10.3575	  10.358	  61.945
 1239	  0.1552	 10.3663	  10.366	  61.995
 1240	  0.1552	 10.3750	  10.375	  62.045
 1241	  0.1556	 10.3837	  10.384	  62.095
 1242	  0.1556	 10.3912	  10.391	  62.145
 1243	  0.1556	 10.4000	  10.400	  62.195
 1244	  0.1560	 10.4087	  10.409	  62.245
 1245	  0.1560	 10.4163	  10.416	  62.295
 1246	  0.1564	 10.4250	  10.425	  62.345
 1247	  0.1560	 10.4338	  10.434	  62.395
 1248	  0.1556	 10.4425	  10.443	  62.445
 1249	  0.1560	 10.4500	  10.450	  62.495
 1250	  0.1568	 10.4587	  10.459	  62.545
 1251	  0.1568	 10.4675	  10.467	  62.595
 1252	  0.1572	 10.4762	  10.476	  62.645
 1253	  0.1568	 10.4837	  10.484	  62.695
 1254	  0.1572	 10.4925	  10.492	  62.745
 1255	  0.1572	 10.5012	  10.501	  62.795
 1256	  0.1572	 10.5087	  10.509	  62.845
 1257	  0.1572	 10.5175	  10.517	  62.895
 1258	  0.1576	 10.5262	  10.526	  62.945
 1259	  0.1572	 10.5337	  10.534	  62.995
 1260	  0.1572	 10.5425	  10.542	  63.045
 1261	  0.1572	 10.5512	  10.551	  63.095
 1262	  0.1580	 10.5588	  10.559	  63.145
 1263	  0.1572	 10.5675	  10.568	  63.195
 1264	  0.1576	 10.5763	  10.576	  63.245
 1265	  0.1576	 10.5850	  10.585	  63.295
 1266	  0.1580	 10.5925	  10.592	  63.345
 1267	  0.1576	 10.6012	  10.601	  63.395
 1268	  0.1576	 10.6100	  10.610	  63.445
 1269	  0.1580	 10.6175	  10.617	  63.495
 1270	  0.1576	 10.6262	  10.626	  63.545
 1271	  0.1584	 10.6350	  10.635	  63.595
 1272	  0.1580	 10.6438	  10.644	  63.645
 1273	  0.1584	 10.6512	  10.651	  63.695
 1274	  0.1588	 10.6600	  10.660	  63.745
 1275	  0.1588	 10.6687	  10.669	  63.795
 1276	  0.1584	 10.6762	  10.676	  63.845
 1277	  0.1588	 10.6850	  10.685	  63.895
 1278	  0.1592	 10.6937	  10.694	  63.945
 1279	  0.1588	 10.7013	  10.701	  63.995
 1280	  0.1588	 10.7100	  10.710	  64.045
 1281	  0.1592	 10.7188	  10.719	  64.095
 1282	  0.1596	 10.7275	  10.727	  64.145
 1283	  0.1592	 10.7350	  10.735	  64.195
 1284	  0.1596	 10.7437	  10.744	  64.245
 1285	  0.1596	 10.7525	  10.752	  64.295
 1286	  0.1596	 10.7600	  10.760	  64.345
 1287	  0.1588	 10.7688	  10.769	  64.395
 1288	  0.1592	 10.7775	  10.778	  64.445
 1289	  0.1596	 10.7850	  10.785	  64.495
 1290	  0.1600	 10.7937	  10.794	  64.545
 1291	  0.1600	 10.8025	  10.802	  64.595
 1292	  0.1600	 10.8100	  10.810	  64.645
 1293	  0.1604	 10.8187	  10.819	  64.695
 1294	  0.1600	 10.8275	  10.827	  64.745
 1295	  0.1608	 10.8362	  10.836	  64.795
 1296	  0.1600	 10.8438	  10.844	  64.845
 1297	  0.1604	 10.8525	  10.852	  64.895
 1298	  0.1600	 10.8612	  10.861	  64.945
 1299	  0.1604	 10.8687	  10.869	  64.995
 1300	  0.1604	 10.8775	  10.877	  65.045
 1301	  0.1612	 10.8862	  10.886	  65.095
 1302	  0.1612	 10.8938	  10.894	  65.145
 1303	  0.1616	 10.9025	  10.903	  65.195
 1304	  0.1616	 10.9113	  10.911	  65.245
 1305	  0.1616	 10.9200	  10.920	  65.295
 1306	  0.1620	 10.9275	  10.927	  65.345
 1307	  0.1624	 10.9362	  10.936	  65.395
 1308	  0.1624	 10.9437	  10.944	  65.445
 1309	  0.1620	 10.9525	  10.952	  65.495
 1310	  0.1620	 10.9612	  10.961	  65.545
 1311	  0.1624	 10.9688	  10.969	  65.595
 1312	  0.1624	 10.9775	  10.977	  65.645
 1313	  0.1620	 10.9862	  10.986	  65.695
 1314	  0.1628	 10.9937	  10.994	  65.745
 1315	  0.1624	 11.0025	  11.002	  65.795
 1316	  0.1624	 11.0112	  11.011	  65.845
 1317	  0.1620	 11.0188	  11.019	  65.895
 1318	  0.1620	 11.0275	  11.028	  65.945
 1319	  0.1624	 11.0363	  11.036	  65.995
 1320	  0.1628	 11.0450	  11.045	  66.045
 1321	  0.1632	 11.0525	  11.052	  66.095
 1322	  0.1624	 11.0612	  11.061	  66.145
 1323	  0.1624	 11.0687	  11.069	  66.195
 1324	  0.1624	 11.0775	  11.077	  66.245
 1325	  0.1628	 11.0862	  11.086	  66.295
 1326	  0.1632	 11.0938	  11.094	  66.345
 1327	  0.1628	 11.1025	  11.102	  66.395
 1328	  0.1628	 11.1112	  11.111	  66.445
 1329	  0.1628	 11.1187	  11.119	  66.495
 1330	  0.1632	 11.1275	  11.127	  66.545
 1331	  0.1632	 11.1362	  11.136	  66.595
 1332	  0.1636	 11.1450	  11.145	  66.645
 1333	  0.1636	 11.1525	  11.153	  66.695
 1334	  0.1636	 11.1613	  11.161	  66.745
 1335	  0.1636	 11.1700	  11.170	  66.795
 1336	  0.1632	 11.1788	  11.179	  66.845
 1337	  0.1632	 11.1862	  11.186	  66.895
 1338	  0.1636	 11.1950	  11.195	  66.945
 1339	  0.1640	 11.2025	  11.202	  66.995
 1340	  0.1644	 11.2112	  11.211	  67.045
 1341	  0.1640	 11.2200	  11.220	  67.095
 1342	  0.1644	 11.2275	  11.227	  67.145
 1343	  0.1644	 11.2362	  11.236	  67.195
 1344	  0.1648	 11.2450	  11.245	  67.245
 1345	  0.1644	 11.2525	  11.252	  67.295
 1346	  0.1648	 11.2612	  11.261	  67.345
 1347	  0.1644	 11.2700	  11.270	  67.395
 1348	  0.1644	 11.2775	  11.278	  67.445
 1349	  0.1648	 11.2863	  11.286	  67.495
 1350	  0.1640	 11.2950	  11.295	  67.545
 1351	  0.1640	 11.3025	  11.302	  67.595
 1352	  0.1640	 11.3112	  11.311	  67.645
 1353	  0.1636	 11.3200	  11.320	  67.695
 1354	  0.1644	 11.3275	  11.327	  67.745
 1355	  0.1644	 11.3362	  11.336	  67.795
 1356	  0.1644	 11.3450	  11.345	  67.845
 1357	  0.1648	 11.3525	  11.352	  67.895
 1358	  0.1652	 11.3612	  11.361	  67.945
 1359	  0.1652	 11.3700	  11.370	  67.995
 1360	  0.1660	 11.3775	  11.377	  68.045
 1361	  0.1656	 11.3862	  11.386	  68.095
 1362	  0.1648	 11.3950	  11.395	  68.145
 1363	  0.1656	 11.4025	  11.403	  68.195
 1364	  0.1656	 11.4113	  11.411	  68.245
 1365	  0.1664	 11.4200	  11.420	  68.295
 1366	  0.1660	 11.4275	  11.427	  68.345
 1367	  0.1664	 11.4362	  11.436	  68.395
 1368	  0.1664	 11.4450	  11.445	  68.445
 1369	  0.1664	 11.4525	  11.452	  68.495
 1370	  0.1664	 11.4612	  11.461	  68.545
 1371	  0.1656	 11.4700	  11.470	  68.595
 1372	  0.1660	 11.4787	  11.479	  68.645
 1373	  0.1660	 11.4862	  11.486	  68.695
 1374	  0.1656	 11.4950	  11.495	  68.745
 1375	  0.1668	 11.5025	  11.502	  68.795
 1376	  0.1672	 11.5112	  11.511	  68.845
 1377	  0.1672	 11.5200	  11.520	  68.895
 1378	  0.1672	 11.5275	  11.528	  68.945
 1379	  0.1672	 11.5363	  11.536	  68.995
 1380	  0.1676	 11.5450	  11.545	  69.045
 1381	  0.1672	 11.5525	  11.552	  69.095
 1382	  0.1672	 11.5612	  11.561	  69.145
 1383	  0.1676	 11.5687	  11.569	  69.195
 1384	  0.1676	 11.5775	  11.577	  69.245
 1385	  0.1680	 11.5862	  11.586	  69.295
 1386	  0.1676	 11.5950	  11.595	  69.345
 1387	  0.1672	 11.6025	  11.602	  69.395
 1388	  0.1672	 11.6112	  11.611	  69.445
 1389	  0.1676	 11.6200	  11.620	  69.495
 1390	  0.1676	 11.6275	  11.627	  69.545
 1391	  0.1684	 11.6362	  11.636	  69.595
 1392	  0.1684	 11.6450	  11.645	  69.645
 1393	  0.1680	 11.6525	  11.653	  69.695
 1394	  0.1688	 11.6613	  11.661	  69.745
 1395	  0.1696	 11.6700	  11.670	  69.795
 1396	  0.1684	 11.6775	  11.677	  69.845
 1397	  0.1692	 11.6862	  11.686	  69.895
 1398	  0.1684	 11.6950	  11.695	  69.945
 1399	  0.1688	 11.7025	  11.702	  69.995
 1400	  0.1692	 11.7112	  11.711	  70.045
 1401	  0.1692	 11.7200	  11.720	  70.095
 1402	  0.1692	 11.7275	  11.727	  70.145
 1403	  0.1688	 11.7362	  11.736	  70.195
 1404	  0.1696	 11.7450	  11.745	  70.245
 1405	  0.1692	 11.7525	  11.752	  70.295
 1406	  0.1696	 11.7612	  11.761	  70.345
 1407	  0.1688	 11.7688	  11.769	  70.395
 1408	  0.1688	 11.7775	  11.778	  70.445
 1409	  0.1688	 11.7863	  11.786	  70.495
 1410	  0.1688	 11.7950	  11.795	  70.545
 1411	  0.1692	 11.8025	  11.802	  70.595
 1412	  0.1692	 11.8112	  11.811	  70.645
 1413	  0.1696	 11.8187	  11.819	  70.695
 1414	  0.1696	 11.8275	  11.827	  70.745
 1415	  0.1692	 11.8362	  11.836	  70.795
 1416	  0.1696	 11.8450	  11.845	  70.845
 1417	  0.1700	 11.8525	  11.852	  70.895
 1418	  0.1704	 11.8612	  11.861	  70.945
 1419	  0.1704	 11.8687	  11.869	  70.995
 1420	  0.1700	 11.8775	  11.877	  71.045
 1421	  0.1704	 11.8862	  11.886	  71.095
 1422	  0.1704	 11.8950	  11.895	  71.145
 1423	  0.1708	 11.9025	  11.903	  71.195
 1424	  0.1708	 11.9113	  11.911	  71.245
 1425	  0.1708	 11.9200	  11.920	  71.295
 1426	  0.1708	 11.9275	  11.927	  71.345
 1427	  0.1708	 11.9362	  11.936	  71.395
 1428	  0.1708	 11.9450	  11.945	  71.445
 1429	  0.1708	 11.9525	  11.952	  71.495
 1430	  0.1708	 11.9612	  11.961	  71.545
 1431	  0.1704	 11.9700	  11.970	  71.595
 1432	  0.1704	 11.9775	  11.977	  71.645
 1433	  0.1708	 11.9862	  11.986	  71.695
 1434	  0.1716	 11.9950	  11.995	  71.745
 1435	  0.1712	 12.0025	  12.002	  71.795
 1436	  0.1712	 12.0112	  12.011	  71.845
 1437	  0.1712	 12.0200	  12.020	  71.895
 1438	  0.1720	 12.0275	  12.028	  71.945
 1439	  0.1724	 12.0363	  12.036	  71.995
 1440	  0.1720	 12.0450	  12.045	  72.045
 1441	  0.1716	 12.0525	  12.052	  72.095
 1442	  0.1720	 12.0612	  12.061	  72.145
 1443	  0.1720	 12.0700	  12.070	  72.195
 1444	  0.1712	 12.0775	  12.077	  72.245
 1445	  0.1712	 12.0862	  12.086	  72.295
 1446	  0.1720	 12.0950	  12.095	  72.345
 1447	  0.1720	 12.1025	  12.102	  72.395
 1448	  0.1720	 12.1112	  12.111	  72.445
 1449	  0.1720	 12.1200	  12.120	  72.495
 1450	  0.1724	 12.1275	  12.127	  72.545
 1451	  0.1724	 12.1362	  12.136	  72.595
 1452	  0.1724	 12.1450	  12.145	  72.645
 1453	  0.1724	 12.1525	  12.153	  72.695
 1454	  0.1724	 12.1613	  12.161	  72.745
 1455	  0.1728	 12.1700	  12.170	  72.795
 1456	  0.1728	 12.1775	  12.177	  72.845
 1457	  0.1724	 12.1862	  12.186	  72.895
 1458	  0.1724	 12.1950	  12.195	  72.945
 1459	  0.1728	 12.2025	  12.202	  72.995
 1460	  0.1732	 12.2112	  12.211	  73.045
 1461	  0.1732	 12.2200	  12.220	  73.095
 1462	  0.1732	 12.2275	  12.227	  73.145
 1463	  0.1736	 12.2362	  12.236	  73.195
 1464	  0.1736	 12.2450	  12.245	  73.245
 1465	  0.1736	 12.2525	  12.252	  73.295
 1466	  0.1728	 12.2612	  12.261	  73.345
 1467	  0.1732	 12.2700	  12.270	  73.395
 1468	  0.1732	 12.2787	  12.279	  73.445
 1469	  0.1732	 12.2863	  12.286	  73.495
 1470	  0.1736	 12.2950	  12.295	  73.545
 1471	  0.1736	 12.3025	  12.302	  73.595
 1472	  0.1740	 12.3112	  12.311	  73.645
 1473	  0.1740	 12.3200	  12.320	  73.695
 1474	  0.1740	 12.3275	  12.327	  73.745
 1475	  0.1736	 12.3362	  12.336	  73.795
 1476	  0.1736	 12.3450	  12.345	  73.845
 1477	  0.1736	 12.3525	  12.352	  73.895
 1478	  0.1740	 12.3612	  12.361	  73.945
 1479	  0.1748	 12.3687	  12.369	  73.995
 1480	  0.1748	 12.3775	  12.377	  74.045
 1481	  0.1756	 12.3862	  12.386	  74.095
 1482	  0.1756	 12.3950	  12.395	  74.145
 1483	  0.1756	 12.4025	  12.403	  74.195
 1484	  0.1760	 12.4113	  12.411	  74.245
 1485	  0.1748	 12.4200	  12.420	  74.295
 1486	  0.1752	 12.4275	  12.427	  74.345
 1487	  0.1756	 12.4362	  12.436	  74.395
 1488	  0.1756	 12.4450	  12.445	  74.445
 1489	  0.1756	 12.4525	  12.452	  74.495
 1490	  0.1752	 12.4612	  12.461	  74.545
 1491	  0.1752	 12.4700	  12.470	  74.595
 1492	  0.1756	 12.4775	  12.477	  74.645
 1493	  0.1752	 12.4862	  12.486	  74.695
 1494	  0.1756	 12.4950	  12.495	  74.745
 1495	  0.1764	 12.5025	  12.502	  74.795
 1496	  0.1756	 12.5112	  12.511	  74.845
 1497	  0.1756	 12.5200	  12.520	  74.895
 1498	  0.1756	 12.5275	  12.528	  74.945
 1499	  0.1756	 12.5363	  12.536	  74.995
 1500	  0.1756	 12.5450	  12.545	  75.045
 1501	  0.1756	 12.5525	  12.552	  75.095
 1502	  0.1760	 12.5612	  12.561	  75.145
 1503	  0.1764	 12.5700	  12.570	  75.195
 1504	  0.1760	 12.5775	  12.577	  75.245
 1505	  0.1756	 12.5862	  12.586	  75.295
 1506	  0.1756	 12.5950	  12.595	  75.345
 1507	  0.1760	 12.6025	  12.602	  75.395
 1508	  0.1764	 12.6112	  12.611	  75.445
 1509	  0.1764	 12.6200	  12.620	  75.495
 1510	  0.1760	 12.6275	  12.627	  75.545
 1511	  0.1764	 12.6362	  12.636	  75.595
 1512	  0.1764	 12.6450	  12.645	  75.645
 1513	  0.1768	 12.6525	  12.653	  75.695
 1514	  0.1768	 12.6613	  12.661	  75.745
 1515	  0.1768	 12.6700	  12.670	  75.795
 1516	  0.1772	 12.6775	  12.677	  75.845
 1517	  0.1768	 12.6862	  12.686	  75.895
 1518	  0.1768	 12.6950	  12.695	  75.945
 1519	  0.1776	 12.7025	  12.702	  75.995
 1520	  0.1780	 12.7112	  12.711	  76.045
 1521	  0.1776	 12.7200	  12.720	  76.095
 1522	  0.1772	 12.7275	  12.727	  76.145
 1523	  0.1772	 12.7362	  12.736	  76.195
 1524	  0.1772	 12.7450	  12.745	  76.245
 1525	  0.1772	 12.7525	  12.752	  76.295
 1526	  0.1768	 12.7612	  12.761	  76.345
 1527	  0.1764	 12.7700	  12.770	  76.395
 1528	  0.1776	 12.7775	  12.778	  76.445
 1529	  0.1780	 12.7863	  12.786	  76.495
 1530	  0.1780	 12.7950	  12.795	  76.545
 1531	  0.1776	 12.8025	  12.802	  76.595
 1532	  0.1776	 12.8112	  12.811	  76.645
 1533	  0.1780	 12.8200	  12.820	  76.695
 1534	  0.1780	 12.8287	  12.829	  76.745
 1535	  0.1784	 12.8362	  12.836	  76.795
 1536	  0.1784	 12.8450	  12.845	  76.845
 1537	  0.1784	 12.8537	  12.854	  76.895
 1538	  0.1780	 12.8612	  12.861	  76.945
 1539	  0.1780	 12.8700	  12.870	  76.995
 1540	  0.1784	 12.8787	  12.879	  77.045
 1541	  0.1788	 12.8862	  12.886	  77.095
 1542	  0.1784	 12.8950	  12.895	  77.145
 1543	  0.1788	 12.9025	  12.903	  77.195
 1544	  0.1796	 12.9113	  12.911	  77.245
 1545	  0.1788	 12.9200	  12.920	  77.295
 1546	  0.1788	 12.9288	  12.929	  77.345
 1547	  0.1796	 12.9362	  12.936	  77.395
 1548	  0.1800	 12.9450	  12.945	  77.445
 1549	  0.1800	 12.9537	  12.954	  77.495
 1550	  0.1804	 12.9625	  12.962	  77.545
 1551	  0.1796	 12.9700	  12.970	  77.595
 1552	  0.1796	 12.9787	  12.979	  77.645
 1553	  0.1800	 12.9875	  12.987	  77.695
 1554	  0.1796	 12.9950	  12.995	  77.745
 1555	  0.1792	 13.0037	  13.004	  77.795
 1556	  0.1796	 13.0125	  13.012	  77.845
 1557	  0.1792	 13.0200	  13.020	  77.895
 1558	  0.1800	 13.0287	  13.029	  77.945
 1559	  0.1800	 13.0375	  13.037	  77.995
 1560	  0.1804	 13.0450	  13.045	  78.045
 1561	  0.1800	 13.0538	  13.054	  78.095
 1562	  0.1804	 13.0625	  13.062	  78.145
 1563	  0.1804	 13.0700	  13.070	  78.195
 1564	  0.1804	 13.0787	  13.079	  78.245
 1565	  0.1804	 13.0875	  13.087	  78.295
 1566	  0.1800	 13.0962	  13.096	  78.345
 1567	  0.1804	 13.1037	  13.104	  78.395
 1568	  0.1808	 13.1125	  13.112	  78.445
 1569	  0.1808	 13.1213	  13.121	  78.495
 1570	  0.1808	 13.1287	  13.129	  78.545
 1571	  0.1808	 13.1375	  13.137	  78.595
 1572	  0.1816	 13.1462	  13.146	  78.645
 1573	  0.1804	 13.1537	  13.154	  78.695
 1574	  0.1808	 13.1625	  13.162	  78.745
 1575	  0.1808	 13.1712	  13.171	  78.795
 1576	  0.1808	 13.1788	  13.179	  78.845
 1577	  0.1808	 13.1875	  13.188	  78.895
 1578	  0.1812	 13.1962	  13.196	  78.945
 1579	  0.1812	 13.2037	  13.204	  78.995
 1580	  0.1816	 13.2125	  13.212	  79.045
 1581	  0.1816	 13.2212	  13.221	  79.095
 1582	  0.1820	 13.2300	  13.230	  79.145
 1583	  0.1812	 13.2375	  13.237	  79.195
 1584	  0.1812	 13.2463	  13.246	  79.245
 1585	  0.1816	 13.2550	  13.255	  79.295
 1586	  0.1816	 13.2638	  13.264	  79.345
 1587	  0.1820	 13.2712	  13.271	  79.395
 1588	  0.1816	 13.2800	  13.280	  79.445
 1589	  0.1816	 13.2887	  13.289	  79.495
 1590	  0.1816	 13.2962	  13.296	  79.545
 1591	  0.1820	 13.3050	  13.305	  79.595
 1592	  0.1828	 13.3137	  13.314	  79.645
 1593	  0.1828	 13.3212	  13.321	  79.695
 1594	  0.1828	 13.3300	  13.330	  79.745
 1595	  0.1824	 13.3387	  13.339	  79.795
 1596	  0.1824	 13.3450	  13.345	  79.845
 1597	  0.1824	 13.3537	  13.354	  79.895
 1598	  0.1824	 13.3625	  13.362	  79.945
 1599	  0.1816	 13.3700	  13.370	  79.995
 1600	  0.1820	 13.3787	  13.379	  80.045
 1601	  0.1824	 13.3875	  13.387	  80.095
 1602	  0.1824	 13.3950	  13.395	  80.145
 1603	  0.1820	 13.4037	  13.404	  80.195
 1604	  0.1824	 13.4125	  13.412	  80.245
 1605	  0.1824	 13.4212	  13.421	  80.295
 1606	  0.1824	 13.4288	  13.429	  80.345
 1607	  0.1832	 13.4375	  13.438	  80.395
 1608	  0.1832	 13.4450	  13.445	  80.445
 1609	  0.1828	 13.4537	  13.454	  80.495
 1610	  0.1828	 13.4625	  13.462	  80.545
 1611	  0.1836	 13.4712	  13.471	  80.595
 1612	  0.1836	 13.4787	  13.479	  80.645
 1613	  0.1836	 13.4875	  13.487	  80.695
 1614	  0.1844	 13.4963	  13.496	  80.745
 1615	  0.1844	 13.5037	  13.504	  80.795
 1616	  0.1844	 13.5125	  13.512	  80.845
 1617	  0.1840	 13.5212	  13.521	  80.895
 1618	  0.1844	 13.5300	  13.530	  80.945
 1619	  0.1848	 13.5375	  13.537	  80.995
 1620	  0.1840	 13.5462	  13.546	  81.045
 1621	  0.1844	 13.5550	  13.555	  81.095
 1622	  0.1844	 13.5625	  13.562	  81.145
 1623	  0.1840	 13.5712	  13.571	  81.195
 1624	  0.1840	 13.5800	  13.580	  81.245
 1625	  0.1848	 13.5875	  13.587	  81.295
 1626	  0.1852	 13.5962	  13.596	  81.345
 1627	  0.1852	 13.6050	  13.605	  81.395
 1628	  0.1852	 13.6125	  13.612	  81.445
 1629	  0.1848	 13.6213	  13.621	  81.495
 1630	  0.1840	 13.6300	  13.630	  81.545
 1631	  0.1832	 13.6375	  13.637	  81.595
 1632	  0.1844	 13.6462	  13.646	  81.645
 1633	  0.1844	 13.6550	  13.655	  81.695
 1634	  0.1844	 13.6637	  13.664	  81.745
 1635	  0.1844	 13.6712	  13.671	  81.795
 1636	  0.1844	 13.6800	  13.680	  81.845
 1637	  0.1844	 13.6887	  13.689	  81.895
 1638	  0.1840	 13.6962	  13.696	  81.945
 1639	  0.1848	 13.7050	  13.705	  81.995
 1640	  0.1848	 13.7137	  13.714	  82.045
 1641	  0.1852	 13.7212	  13.721	  82.095
 1642	  0.1852	 13.7300	  13.730	  82.145
 1643	  0.1848	 13.7387	  13.739	  82.195
 1644	  0.1852	 13.7463	  13.746	  82.245
 1645	  0.1856	 13.7550	  13.755	  82.295
 1646	  0.1856	 13.7638	  13.764	  82.345
 1647	  0.1856	 13.7725	  13.773	  82.395
 1648	  0.1864	 13.7800	  13.780	  82.445
 1649	  0.1860	 13.7887	  13.789	  82.495
 1650	  0.1868	 13.7975	  13.797	  82.545
 1651	  0.1864	 13.8062	  13.806	  82.595
 1652	  0.1868	 13.8137	  13.814	  82.645
 1653	  0.1864	 13.8225	  13.822	  82.695
 1654	  0.1868	 13.8312	  13.831	  82.745
 1655	  0.1868	 13.8387	  13.839	  82.795
 1656	  0.1868	 13.8475	  13.847	  82.845
 1657	  0.1868	 13.8562	  13.856	  82.895
 1658	  0.1864	 13.8637	  13.864	  82.945
 1659	  0.1864	 13.8725	  13.872	  82.995
 1660	  0.1868	 13.8812	  13.881	  83.045
 1661	  0.1872	 13.8888	  13.889	  83.095
 1662	  0.1860	 13.8975	  13.898	  83.145
 1663	  0.1868	 13.9062	  13.906	  83.195
 1664	  0.1868	 13.9137	  13.914	  83.245
 1665	  0.1864	 13.9225	  13.922	  83.295
 1666	  0.1868	 13.9312	  13.931	  83.345
 1667	  0.1864	 13.9400	  13.940	  83.395
 1668	  0.1868	 13.9475	  13.947	  83.445
 1669	  0.1868	 13.9562	  13.956	  83.495
 1670	  0.1868	 13.9650	  13.965	  83.545
 1671	  0.1864	 13.9738	  13.974	  83.595
 1672	  0.1868	 13.9812	  13.981	  83.645
 1673	  0.1868	 13.9900	  13.990	  83.695
 1674	  0.1868	 13.9987	  13.999	  83.745
 1675	  0.1872	 14.0062	  14.006	  83.795
 1676	  0.1876	 14.0150	  14.015	  83.845
 1677	  0.1876	 14.0237	  14.024	  83.895
 1678	  0.1872	 14.0312	  14.031	  83.945
 1679	  0.1876	 14.0400	  14.040	  83.995
 1680	  0.1868	 14.0487	  14.049	  84.045
 1681	  0.1872	 14.0575	  14.057	  84.095
 1682	  0.1872	 14.0650	  14.065	  84.145
 1683	  0.1876	 14.0737	  14.074	  84.195
 1684	  0.1876	 14.0825	  14.082	  84.245
 1685	  0.1884	 14.0912	  14.091	  84.295
 1686	  0.1872	 14.0988	  14.099	  84.345
 1687	  0.1876	 14.1075	  14.108	  84.395
 1688	  0.1876	 14.1163	  14.116	  84.445
 1689	  0.1880	 14.1237	  14.124	  84.495
 1690	  0.1880	 14.1325	  14.132	  84.545
 1691	  0.1880	 14.1412	  14.141	  84.595
 1692	  0.1884	 14.1487	  14.149	  84.645
 1693	  0.1892	 14.1575	  14.157	  84.695
 1694	  0.1888	 14.1662	  14.166	  84.745
 1695	  0.1888	 14.1737	  14.174	  84.795
 1696	  0.1884	 14.1825	  14.182	  84.845
 1697	  0.1884	 14.1912	  14.191	  84.895
 1698	  0.1888	 14.2000	  14.200	  84.945
 1699	  0.1892	 14.2075	  14.207	  84.995
 1700	  0.1896	 14.2162	  14.216	  85.045
 1701	  0.1888	 14.2250	  14.225	  85.095
 1702	  0.1892	 14.2337	  14.234	  85.145
 1703	  0.1892	 14.2413	  14.241	  85.195
 1704	  0.1896	 14.2500	  14.250	  85.245
 1705	  0.1892	 14.2587	  14.259	  85.295
 1706	  0.1896	 14.2662	  14.266	  85.345
 1707	  0.1896	 14.2750	  14.275	  85.395
 1708	  0.1892	 14.2837	  14.284	  85.445
 1709	  0.1892	 14.2912	  14.291	  85.495
 1710	  0.1900	 14.3000	  14.300	  85.545
 1711	  0.1896	 14.3088	  14.309	  85.595
 1712	  0.1892	 14.3175	  14.318	  85.645
 1713	  0.1896	 14.3250	  14.325	  85.695
 1714	  0.1900	 14.3337	  14.334	  85.745
 1715	  0.1904	 14.3425	  14.342	  85.795
 1716	  0.1904	 14.3500	  14.350	  85.845
 1717	  0.1900	 14.3587	  14.359	  85.895
 1718	  0.1896	 14.3675	  14.367	  85.945
 1719	  0.1904	 14.3762	  14.376	  85.995
 1720	  0.1904	 14.3837	  14.384	  86.045
 1721	  0.1912	 14.3925	  14.392	  86.095
 1722	  0.1908	 14.4012	  14.401	  86.145
 1723	  0.1900	 14.4087	  14.409	  86.195
 1724	  0.1900	 14.4175	  14.417	  86.245
 1725	  0.1900	 14.4262	  14.426	  86.295
 1726	  0.1900	 14.4338	  14.434	  86.345
 1727	  0.1904	 14.4425	  14.443	  86.395
 1728	  0.1912	 14.4513	  14.451	  86.445
 1729	  0.1904	 14.4587	  14.459	  86.495
 1730	  0.1904	 14.4675	  14.467	  86.545
 1731	  0.1912	 14.4762	  14.476	  86.595
 1732	  0.1908	 14.4837	  14.484	  86.645
 1733	  0.1912	 14.4925	  14.492	  86.695
 1734	  0.1916	 14.5012	  14.501	  86.745
 1735	  0.1908	 14.5100	  14.510	  86.795
 1736	  0.1912	 14.5175	  14.517	  86.845
 1737	  0.1912	 14.5262	  14.526	  86.895
 1738	  0.1916	 14.5350	  14.535	  86.945
 1739	  0.1916	 14.5425	  14.542	  86.995
 1740	  0.1912	 14.5512	  14.551	  87.045
 1741	  0.1912	 14.5600	  14.560	  87.095
 1742	  0.1912	 14.5687	  14.569	  87.145
 1743	  0.1912	 14.5763	  14.576	  87.195
 1744	  0.1908	 14.5850	  14.585	  87.245
 1745	  0.1916	 14.5938	  14.594	  87.295
 1746	  0.1912	 14.6012	  14.601	  87.345
 1747	  0.1908	 14.6100	  14.610	  87.395
 1748	  0.1912	 14.6187	  14.619	  87.445
 1749	  0.1908	 14.6262	  14.626	  87.495
 1750	  0.1912	 14.6350	  14.635	  87.545
 1751	  0.1912	 14.6437	  14.644	  87.595
 1752	  0.1912	 14.6512	  14.651	  87.645
 1753	  0.1916	 14.6600	  14.660	  87.695
 1754	  0.1916	 14.6687	  14.669	  87.745
 1755	  0.1916	 14.6775	  14.677	  87.795
 1756	  0.1924	 14.6850	  14.685	  87.845
 1757	  0.1920	 14.6937	  14.694	  87.895
 1758	  0.1920	 14.7013	  14.701	  87.945
 1759	  0.1916	 14.7100	  14.710	  87.995
 1760	  0.1924	 14.7188	  14.719	  88.045
 1761	  0.1924	 14.7275	  14.727	  88.095
 1762	  0.1920	 14.7350	  14.735	  88.145
 1763	  0.1920	 14.7437	  14.744	  88.195
 1764	  0.1920	 14.7525	  14.752	  88.245
 1765	  0.1916	 14.7600	  14.760	  88.295
 1766	  0.1920	 14.7687	  14.769	  88.345
 1767	  0.1924	 14.7775	  14.777	  88.395
 1768	  0.1920	 14.7850	  14.785	  88.445
 1769	  0.1928	 14.7937	  14.794	  88.495
 1770	  0.1920	 14.8025	  14.802	  88.545
 1771	  0.1920	 14.8100	  14.810	  88.595
 1772	  0.1924	 14.8187	  14.819	  88.645
 1773	  0.1924	 14.8275	  14.827	  88.695
 1774	  0.1924	 14.8350	  14.835	  88.745
 1775	  0.1924	 14.8438	  14.844	  88.795
 1776	  0.1924	 14.8525	  14.852	  88.845
 1777	  0.1932	 14.8612	  14.861	  88.895
 1778	  0.1928	 14.8687	  14.869	  88.945
 1779	  0.1924	 14.8775	  14.877	  88.995
 1780	  0.1928	 14.8862	  14.886	  89.045
 1781	  0.1924	 14.8937	  14.894	  89.095
 1782	  0.1924	 14.9025	  14.902	  89.145
 1783	  0.1928	 14.9113	  14.911	  89.195
 1784	  0.1924	 14.9187	  14.919	  89.245
 1785	  0.1920	 14.9275	  14.927	  89.295
 1786	  0.1924	 14.9362	  14.936	  89.345
 1787	  0.1928	 14.9437	  14.944	  89.395
 1788	  0.1932	 14.9525	  14.952	  89.445
 1789	  0.1932	 14.9612	  14.961	  89.495
 1790	  0.1932	 14.9688	  14.969	  89.545
 1791	  0.1936	 14.9775	  14.977	  89.595
 1792	  0.1924	 14.9862	  14.986	  89.645
 1793	  0.1932	 14.9937	  14.994	  89.695
 1794	  0.1944	 15.0025	  15.002	  89.745
 1795	  0.1936	 15.0112	  15.011	  89.795
 1796	  0.1932	 15.0200	  15.020	  89.845
 1797	  0.1936	 15.0275	  15.027	  89.895
 1798	  0.1940	 15.0363	  15.036	  89.945
 1799	  0.1940	 15.0450	  15.045	  89.995
 1800	  0.1940	 15.0538	  15.054	  90.045
 1801	  0.1936	 15.0612	  15.061	  90.095
 1802	  0.1940	 15.0700	  15.070	  90.145
 1803	  0.1944	 15.0787	  15.079	  90.195
 1804	  0.1940	 15.0862	  15.086	  90.245
 1805	  0.1940	 15.0950	  15.095	  90.295
 1806	  0.1944	 15.1037	  15.104	  90.345
 1807	  0.1940	 15.1112	  15.111	  90.395
 1808	  0.1944	 15.1200	  15.120	  90.445
 1809	  0.1944	 15.1287	  15.129	  90.495
 1810	  0.1944	 15.1362	  15.136	  90.545
 1811	  0.1952	 15.1450	  15.145	  90.595
 1812	  0.1952	 15.1537	  15.154	  90.645
 1813	  0.1948	 15.1613	  15.161	  90.695
 1814	  0.1952	 15.1700	  15.170	  90.745
 1815	  0.1952	 15.1788	  15.179	  90.795
 1816	  0.1948	 15.1875	  15.188	  90.845
 1817	  0.1952	 15.1950	  15.195	  90.895
 1818	  0.1952	 15.2037	  15.204	  90.945
 1819	  0.1956	 15.2112	  15.211	  90.995
 1820	  0.1956	 15.2200	  15.220	  91.045
 1821	  0.1948	 15.2287	  15.229	  91.095
 1822	  0.1956	 15.2375	  15.237	  91.145
 1823	  0.1952	 15.2450	  15.245	  91.195
 1824	  0.1956	 15.2537	  15.254	  91.245
 1825	  0.1956	 15.2625	  15.262	  91.295
 1826	  0.1956	 15.2700	  15.270	  91.345
 1827	  0.1952	 15.2787	  15.279	  91.395
 1828	  0.1956	 15.2875	  15.287	  91.445
 1829	  0.1956	 15.2950	  15.295	  91.495
 1830	  0.1960	 15.3038	  15.304	  91.545
 1831	  0.1964	 15.3125	  15.312	  91.595
 1832	  0.1964	 15.3212	  15.321	  91.645
 1833	  0.1968	 15.3287	  15.329	  91.695
 1834	  0.1968	 15.3375	  15.337	  91.745
 1835	  0.1972	 15.3462	  15.346	  91.795
 1836	  0.1964	 15.3550	  15.355	  91.845
 1837	  0.1960	 15.3625	  15.362	  91.895
 1838	  0.1960	 15.3712	  15.371	  91.945
 1839	  0.1956	 15.3787	  15.379	  91.995
 1840	  0.1964	 15.3875	  15.387	  92.045
 1841	  0.1964	 15.3962	  15.396	  92.095
 1842	  0.1964	 15.4050	  15.405	  92.145
 1843	  0.1960	 15.4125	  15.412	  92.195
 1844	  0.1968	 15.4212	  15.421	  92.245
 1845	  0.1964	 15.4300	  15.430	  92.295
 1846	  0.1964	 15.4375	  15.438	  92.345
 1847	  0.1968	 15.4462	  15.446	  92.395
 1848	  0.1972	 15.4550	  15.455	  92.445
 1849	  0.1976	 15.4625	  15.462	  92.495
 1850	  0.1972	 15.4712	  15.471	  92.545
 1851	  0.1968	 15.4800	  15.480	  92.595
 1852	  0.1968	 15.4875	  15.487	  92.645
 1853	  0.1964	 15.4962	  15.496	  92.695
 1854	  0.1972	 15.5050	  15.505	  92.745
 1855	  0.1972	 15.5125	  15.512	  92.795
 1856	  0.1972	 15.5212	  15.521	  92.845
 1857	  0.1972	 15.5300	  15.530	  92.895
 1858	  0.1976	 15.5375	  15.537	  92.945
 1859	  0.1980	 15.5462	  15.546	  92.995
 1860	  0.1976	 15.5550	  15.555	  93.045
 1861	  0.1976	 15.5625	  15.562	  93.095
 1862	  0.1976	 15.5712	  15.571	  93.145
 1863	  0.1976	 15.5800	  15.580	  93.195
 1864	  0.1972	 15.5875	  15.587	  93.245
 1865	  0.1976	 15.5962	  15.596	  93.295
 1866	  0.1976	 15.6050	  15.605	  93.345
 1867	  0.1976	 15.6137	  15.614	  93.395
 1868	  0.1980	 15.6212	  15.621	  93.445
 1869	  0.1972	 15.6300	  15.630	  93.495
 1870	  0.1976	 15.6388	  15.639	  93.545
 1871	  0.1972	 15.6462	  15.646	  93.595
 1872	  0.1976	 15.6550	  15.655	  93.645
 1873	  0.1976	 15.6637	  15.664	  93.695
 1874	  0.1976	 15.6712	  15.671	  93.745
 1875	  0.1984	 15.6800	  15.680	  93.795
 1876	  0.1980	 15.6887	  15.689	  93.845
 1877	  0.1980	 15.6962	  15.696	  93.895
 1878	  0.1984	 15.7050	  15.705	  93.945
 1879	  0.1984	 15.7137	  15.714	  93.995
 1880	  0.1984	 15.7212	  15.721	  94.045
 1881	  0.1984	 15.7300	  15.730	  94.095
 1882	  0.1980	 15.7387	  15.739	  94.145
 1883	  0.1984	 15.7462	  15.746	  94.195
 1884	  0.1988	 15.7550	  15.755	  94.245
 1885	  0.1992	 15.7638	  15.764	  94.295
 1886	  0.1988	 15.7712	  15.771	  94.345
 1887	  0.1992	 15.7800	  15.780	  94.395
 1888	  0.1992	 15.7887	  15.789	  94.445
 1889	  0.1988	 15.7975	  15.797	  94.495
 1890	  0.1992	 15.8050	  15.805	  94.545
 1891	  0.1992	 15.8137	  15.814	  94.595
 1892	  0.1992	 15.8212	  15.821	  94.645
 1893	  0.1992	 15.8300	  15.830	  94.695
 1894	  0.1992	 15.8387	  15.839	  94.745
 1895	  0.1992	 15.8475	  15.847	  94.795
 1896	  0.1996	 15.8550	  15.855	  94.845
 1897	  0.2008	 15.8637	  15.864	  94.895
 1898	  0.2000	 15.8725	  15.872	  94.945
 1899	  0.2000	 15.8800	  15.880	  94.995
 1900	  0.1992	 15.8888	  15.889	  95.045
 1901	  0.1992	 15.8975	  15.898	  95.095
 1902	  0.1992	 15.9062	  15.906	  95.145
 1903	  0.2000	 15.9137	  15.914	  95.195
 1904	  0.2000	 15.9225	  15.922	  95.245
 1905	  0.2004	 15.9312	  15.931	  95.295
 1906	  0.2004	 15.9387	  15.939	  95.345
 1907	  0.2000	 15.9475	  15.947	  95.395
 1908	  0.2000	 15.9550	  15.955	  95.445
 1909	  0.2000	 15.9637	  15.964	  95.495
 1910	  0.2004	 15.9725	  15.972	  95.545
 1911	  0.2000	 15.9800	  15.980	  95.595
 1912	  0.1996	 15.9887	  15.989	  95.645
 1913	  0.2004	 15.9975	  15.997	  95.695
 1914	  0.2004	 16.0050	  16.005	  95.745
 1915	  0.2008	 16.0138	  16.014	  95.795
 1916	  0.2008	 16.0225	  16.022	  95.845
 1917	  0.2008	 16.0312	  16.031	  95.895
 1918	  0.2000	 16.0387	  16.039	  95.945
 1919	  0.2000	 16.0475	  16.047	  95.995
 1920	  0.2008	 16.0562	  16.056	  96.045
 1921	  0.2004	 16.0637	  16.064	  96.095
 1922	  0.2008	 16.0725	  16.073	  96.145
 1923	  0.2008	 16.0812	  16.081	  96.195
 1924	  0.2008	 16.0887	  16.089	  96.245
 1925	  0.2008	 16.0975	  16.097	  96.295
 1926	  0.2004	 16.1062	  16.106	  96.345
 1927	  0.2008	 16.1138	  16.114	  96.395
 1928	  0.2008	 16.1225	  16.122	  96.445
 1929	  0.2008	 16.1313	  16.131	  96.495
 1930	  0.2012	 16.1400	  16.140	  96.545
 1931	  0.2012	 16.1475	  16.147	  96.595
 1932	  0.2012	 16.1562	  16.156	  96.645
 1933	  0.2012	 16.1650	  16.165	  96.695
 1934	  0.2012	 16.1725	  16.172	  96.745
 1935	  0.2008	 16.1812	  16.181	  96.795
 1936	  0.2012	 16.1900	  16.190	  96.845
 1937	  0.2016	 16.1975	  16.198	  96.895
 1938	  0.2012	 16.2062	  16.206	  96.945
 1939	  0.2020	 16.2150	  16.215	  96.995
 1940	  0.2020	 16.2225	  16.222	  97.045
 1941	  0.2012	 16.2312	  16.231	  97.095
 1942	  0.2016	 16.2400	  16.240	  97.145
 1943	  0.2012	 16.2475	  16.247	  97.195
 1944	  0.2016	 16.2563	  16.256	  97.245
 1945	  0.2016	 16.2650	  16.265	  97.295
 1946	  0.2016	 16.2725	  16.272	  97.345
 1947	  0.2024	 16.2812	  16.281	  97.395
 1948	  0.2016	 16.2900	  16.290	  97.445
 1949	  0.2020	 16.2975	  16.297	  97.495
 1950	  0.2020	 16.3062	  16.306	  97.545
 1951	  0.2020	 16.3150	  16.315	  97.595
 1952	  0.2020	 16.3237	  16.324	  97.645
 1953	  0.2020	 16.3312	  16.331	  97.695
 1954	  0.2016	 16.3400	  16.340	  97.745
 1955	  0.2016	 16.3487	  16.349	  97.795
 1956	  0.2020	 16.3562	  16.356	  97.845
 1957	  0.2020	 16.3650	  16.365	  97.895
 1958	  0.2020	 16.3737	  16.374	  97.945
 1959	  0.2016	 16.3813	  16.381	  97.995
 1960	  0.2012	 16.3900	  16.390	  98.045
 1961	  0.2016	 16.3988	  16.399	  98.095
 1962	  0.2016	 16.4062	  16.406	  98.145
 1963	  0.2016	 16.4150	  16.415	  98.195
 1964	  0.2020	 16.4237	  16.424	  98.245
 1965	  0.2024	 16.4312	  16.431	  98.295
 1966	  0.2024	 16.4400	  16.440	  98.345
 1967	  0.2028	 16.4487	  16.449	  98.395
 1968	  0.2028	 16.4575	  16.458	  98.445
 1969	  0.2024	 16.4650	  16.465	  98.495
 1970	  0.2024	 16.4737	  16.474	  98.545
 1971	  0.2028	 16.4812	  16.481	  98.595
 1972	  0.2032	 16.4900	  16.490	  98.645
 1973	  0.2032	 16.4987	  16.499	  98.695
 1974	  0.2032	 16.5063	  16.506	  98.745
 1975	  0.2024	 16.5150	  16.515	  98.795
 1976	  0.2036	 16.5238	  16.524	  98.845
 1977	  0.2032	 16.5312	  16.531	  98.895
 1978	  0.2032	 16.5400	  16.540	  98.945
 1979	  0.2036	 16.5487	  16.549	  98.995
 1980	  0.2032	 16.5575	  16.557	  99.045
 1981	  0.2036	 16.5650	  16.565	  99.095
 1982	  0.2040	 16.5737	  16.574	  99.145
 1983	  0.2036	 16.5825	  16.583	  99.195
 1984	  0.2040	 16.5900	  16.590	  99.245
 1985	  0.2036	 16.5987	  16.599	  99.295
 1986	  0.2036	 16.6075	  16.608	  99.345
 1987	  0.2040	 16.6150	  16.615	  99.395
 1988	  0.2044	 16.6237	  16.624	  99.445
 1989	  0.2044	 16.6325	  16.632	  99.495
 1990	  0.2040	 16.6412	  16.641	  99.545
 1991	  0.2040	 16.6488	  16.649	  99.595
 1992	  0.2048	 16.6575	  16.657	  99.645
 1993	  0.2044	 16.6663	  16.666	  99.695
 1994	  0.2048	 16.6737	  16.674	  99.745
 1995	  0.2048	 16.6825	  16.682	  99.795
 1996	  0.2052	 16.6912	  16.691	  99.845
 1997	  0.2044	 16.6987	  16.699	  99.895
 1998	  0.2048	 16.7075	  16.708	  99.945
 1999	  0.2056	 16.7162	  16.716	  99.995
 2000	  0.2048	 16.7237	  16.724	 100.045
 2001	  0.2048	 16.7325	  16.733	 100.095
 2002	  0.2048	 16.7412	  16.741	 100.145
 2003	  0.2052	 16.7487	  16.749	 100.195
 2004	  0.2056	 16.7575	  16.757	 100.245
 2005	  0.2048	 16.7662	  16.766	 100.295
 2006	  0.2048	 16.7738	  16.774	 100.345
 2007	  0.2052	 16.7825	  16.782	 100.395
 2008	  0.2048	 16.7913	  16.791	 100.445
 2009	  0.2048	 16.7987	  16.799	 100.495
 2010	  0.2044	 16.8075	  16.807	 100.545
 2011	  0.2048	 16.8162	  16.816	 100.595
 2012	  0.2044	 16.8237	  16.824	 100.645
 2013	  0.2052	 16.8325	  16.833	 100.695
 2014	  0.2052	 16.8412	  16.841	 100.745
 2015	  0.2052	 16.8487	  16.849	 100.795
 2016	  0.2060	 16.8575	  16.858	 100.845
 2017	  0.2056	 16.8662	  16.866	 100.895
 2018	  0.2060	 16.8737	  16.874	 100.945
 2019	  0.2060	 16.8825	  16.882	 100.995
 2020	  0.2056	 16.8912	  16.891	 101.045
 2021	  0.2048	 16.9000	  16.900	 101.095
 2022	  0.2052	 16.9075	  16.907	 101.145
 2023	  0.2052	 16.9163	  16.916	 101.195
 2024	  0.2060	 16.9237	  16.924	 101.245
 2025	  0.2052	 16.9325	  16.932	 101.295
 2026	  0.2060	 16.9412	  16.941	 101.345
 2027	  0.2060	 16.9487	  16.949	 101.395
 2028	  0.2064	 16.9575	  16.958	 101.445
 2029	  0.2068	 16.9662	  16.966	 101.495
 2030	  0.2060	 16.9750	  16.975	 101.545
 2031	  0.2060	 16.9825	  16.983	 101.595
 2032	  0.2064	 16.9912	  16.991	 101.645
 2033	  0.2068	 17.0000	  17.000	 101.695
 2034	  0.2068	 17.0075	  17.007	 101.745
 2035	  0.2060	 17.0162	  17.016	 101.795
 2036	  0.2068	 17.0250	  17.025	 101.845
 2037	  0.2072	 17.0325	  17.032	 101.895
 2038	  0.2072	 17.0413	  17.041	 101.945
 2039	  0.2072	 17.0500	  17.050	 101.995
 2040	  0.2072	 17.0575	  17.057	 102.045
 2041	  0.2072	 17.0662	  17.066	 102.095
 2042	  0.2068	 17.0750	  17.075	 102.145
 2043	  0.2064	 17.0825	  17.083	 102.195
 2044	  0.2068	 17.0912	  17.091	 102.245
 2045	  0.2072	 17.1000	  17.100	 102.295
 2046	  0.2068	 17.1087	  17.109	 102.345
 2047	  0.2064	 17.1162	  17.116	 102.395
 2048	  0.2068	 17.1250	  17.125	 102.445
 2049	  0.2072	 17.1337	  17.134	 102.495
 2050	  0.2072	 17.1412	  17.141	 102.545
 2051	  0.2072	 17.1500	  17.150	 102.595
 2052	  0.2072	 17.1588	  17.159	 102.645
 2053	  0.2068	 17.1675	  17.167	 102.695
 2054	  0.2072	 17.1750	  17.175	 102.745
 2055	  0.2072	 17.1838	  17.184	 102.795
 2056	  0.2076	 17.1925	  17.192	 102.845
 2057	  0.2076	 17.2000	  17.200	 102.895
 2058	  0.2072	 17.2087	  17.209	 102.945
 2059	  0.2064	 17.2175	  17.217	 102.995
 2060	  0.2064	 17.2250	  17.225	 103.045
 2061	  0.2072	 17.2337	  17.234	 103.095
 2062	  0.2076	 17.2425	  17.243	 103.145
 2063	  0.2076	 17.2500	  17.250	 103.195
 2064	  0.2080	 17.2587	  17.259	 103.245
 2065	  0.2076	 17.2675	  17.267	 103.295
 2066	  0.2076	 17.2750	  17.275	 103.345
 2067	  0.2084	 17.2838	  17.284	 103.395
 2068	  0.2076	 17.2925	  17.292	 103.445
 2069	  0.2076	 17.3000	  17.300	 103.495
 2070	  0.2080	 17.3088	  17.309	 103.545
 2071	  0.2084	 17.3175	  17.317	 103.595
 2072	  0.2084	 17.3250	  17.325	 103.645
 2073	  0.2080	 17.3337	  17.334	 103.695
 2074	  0.2076	 17.3425	  17.342	 103.745
 2075	  0.2084	 17.3512	  17.351	 103.795
 2076	  0.2084	 17.3587	  17.359	 103.845
 2077	  0.2088	 17.3675	  17.368	 103.895
 2078	  0.2088	 17.3762	  17.376	 103.945
 2079	  0.2088	 17.3837	  17.384	 103.995
 2080	  0.2088	 17.3925	  17.392	 104.045
 2081	  0.2088	 17.4012	  17.401	 104.095
 2082	  0.2092	 17.4088	  17.409	 104.145
 2083	  0.2092	 17.4175	  17.417	 104.195
 2084	  0.2092	 17.4263	  17.426	 104.245
 2085	  0.2084	 17.4350	  17.435	 104.295
 2086	  0.2084	 17.4425	  17.442	 104.345
 2087	  0.2088	 17.4513	  17.451	 104.395
 2088	  0.2076	 17.4600	  17.460	 104.445
 2089	  0.2084	 17.4675	  17.467	 104.495
 2090	  0.2084	 17.4762	  17.476	 104.545
 2091	  0.2092	 17.4850	  17.485	 104.595
 2092	  0.2092	 17.4925	  17.493	 104.645
 2093	  0.2088	 17.5012	  17.501	 104.695
 2094	  0.2080	 17.5100	  17.510	 104.745
 2095	  0.2084	 17.5187	  17.519	 104.795
 2096	  0.2092	 17.5262	  17.526	 104.845
 2097	  0.2092	 17.5350	  17.535	 104.895
 2098	  0.2088	 17.5437	  17.544	 104.945
 2099	  0.2088	 17.5513	  17.551	 104.995
 2100	  0.2084	 17.5600	  17.560	 105.045
 2101	  0.2084	 17.5688	  17.569	 105.095
 2102	  0.2080	 17.5763	  17.576	 105.145
 2103	  0.2084	 17.5850	  17.585	 105.195
 2104	  0.2084	 17.5938	  17.594	 105.245
 2105	  0.2088	 17.6012	  17.601	 105.295
 2106	  0.2092	 17.6100	  17.610	 105.345
 2107	  0.2088	 17.6187	  17.619	 105.395
 2108	  0.2092	 17.6262	  17.626	 105.445
 2109	  0.2092	 17.6350	  17.635	 105.495
 2110	  0.2096	 17.6437	  17.644	 105.545
 2111	  0.2096	 17.6525	  17.653	 105.595
 2112	  0.2092	 17.6600	  17.660	 105.645
 2113	  0.2096	 17.6687	  17.669	 105.695
 2114	  0.2092	 17.6775	  17.677	 105.745
 2115	  0.2100	 17.6850	  17.685	 105.795
 2116	  0.2104	 17.6938	  17.694	 105.845
 2117	  0.2096	 17.7025	  17.702	 105.895
 2118	  0.2100	 17.7113	  17.711	 105.945
 2119	  0.2100	 17.7188	  17.719	 105.995
 2120	  0.2100	 17.7275	  17.727	 106.045
 2121	  0.2104	 17.7362	  17.736	 106.095
 2122	  0.2104	 17.7437	  17.744	 106.145
 2123	  0.2104	 17.7525	  17.753	 106.195
 2124	  0.2092	 17.7612	  17.761	 106.245
 2125	  0.2096	 17.7687	  17.769	 106.295
 2126	  0.2104	 17.7775	  17.778	 106.345
 2127	  0.2096	 17.7862	  17.786	 106.395
 2128	  0.2096	 17.7937	  17.794	 106.445
 2129	  0.2096	 17.8025	  17.802	 106.495
 2130	  0.2100	 17.8112	  17.811	 106.545
 2131	  0.2104	 17.8188	  17.819	 106.595
 2132	  0.2104	 17.8275	  17.827	 106.645
 2133	  0.2100	 17.8363	  17.836	 106.695
 2134	  0.2100	 17.8438	  17.844	 106.745
 2135	  0.2100	 17.8525	  17.852	 106.795
 2136	  0.2104	 17.8600	  17.860	 106.845
 2137	  0.2100	 17.8687	  17.869	 106.895
 2138	  0.2100	 17.8762	  17.876	 106.945
 2139	  0.2108	 17.8850	  17.885	 106.995
 2140	  0.2104	 17.8937	  17.894	 107.045
 2141	  0.2104	 17.9012	  17.901	 107.095
 2142	  0.2108	 17.9100	  17.910	 107.145
 2143	  0.2108	 17.9187	  17.919	 107.195
 2144	  0.2108	 17.9263	  17.926	 107.245
 2145	  0.2108	 17.9350	  17.935	 107.295
 2146	  0.2108	 17.9438	  17.944	 107.345
 2147	  0.2112	 17.9525	  17.952	 107.395
 2148	  0.2108	 17.9600	  17.960	 107.445
 2149	  0.2116	 17.9688	  17.969	 107.495
 2150	  0.2116	 17.9775	  17.977	 107.545
 2151	  0.2108	 17.9862	  17.986	 107.595
 2152	  0.2112	 17.9937	  17.994	 107.645
 2153	  0.2112	 18.0025	  18.003	 107.695
 2154	  0.2116	 18.0100	  18.010	 107.745
 2155	  0.2112	 18.0187	  18.019	 107.795
 2156	  0.2116	 18.0275	  18.028	 107.845
 2157	  0.2116	 18.0362	  18.036	 107.895
 2158	  0.2112	 18.0437	  18.044	 107.945
 2159	  0.2112	 18.0525	  18.052	 107.995
 2160	  0.2116	 18.0612	  18.061	 108.045
 2161	  0.2116	 18.0688	  18.069	 108.095
 2162	  0.2120	 18.0775	  18.077	 108.145
 2163	  0.2112	 18.0863	  18.086	 108.195
 2164	  0.2116	 18.0938	  18.094	 108.245
 2165	  0.2116	 18.1025	  18.102	 108.295
 2166	  0.2116	 18.1112	  18.111	 108.345
 2167	  0.2116	 18.1200	  18.120	 108.395
 2168	  0.2116	 18.1275	  18.128	 108.445
 2169	  0.2120	 18.1362	  18.136	 108.495
 2170	  0.2116	 18.1450	  18.145	 108.545
 2171	  0.2124	 18.1525	  18.153	 108.595
 2172	  0.2124	 18.1612	  18.161	 108.645
 2173	  0.2120	 18.1700	  18.170	 108.695
 2174	  0.2124	 18.1787	  18.179	 108.745
 2175	  0.2124	 18.1862	  18.186	 108.795
 2176	  0.2120	 18.1950	  18.195	 108.845
 2177	  0.2128	 18.2037	  18.204	 108.895
 2178	  0.2124	 18.2113	  18.211	 108.945
 2179	  0.2124	 18.2200	  18.220	 108.995
 2180	  0.2124	 18.2288	  18.229	 109.045
 2181	  0.2124	 18.2375	  18.237	 109.095
 2182	  0.2128	 18.2450	  18.245	 109.145
 2183	  0.2128	 18.2537	  18.254	 109.195
 2184	  0.2120	 18.2625	  18.262	 109.245
 2185	  0.2124	 18.2712	  18.271	 109.295
 2186	  0.2124	 18.2787	  18.279	 109.345
 2187	  0.2128	 18.2875	  18.288	 109.395
 2188	  0.2128	 18.2962	  18.296	 109.445
 2189	  0.2128	 18.3037	  18.304	 109.495
 2190	  0.2128	 18.3125	  18.312	 109.545
 2191	  0.2128	 18.3212	  18.321	 109.595
 2192	  0.2124	 18.3287	  18.329	 109.645
 2193	  0.2132	 18.3375	  18.337	 109.695
 2194	  0.2132	 18.3463	  18.346	 109.745
 2195	  0.2136	 18.3538	  18.354	 109.795
 2196	  0.2132	 18.3625	  18.362	 109.845
 2197	  0.2132	 18.3713	  18.371	 109.895
 2198	  0.2128	 18.3787	  18.379	 109.945
 2199	  0.2132	 18.3875	  18.387	 109.995
 2200	  0.2136	 18.3962	  18.396	 110.045
 2201	  0.2132	 18.4050	  18.405	 110.095
 2202	  0.2140	 18.4125	  18.413	 110.145
 2203	  0.2136	 18.4212	  18.421	 110.195
 2204	  0.2132	 18.4300	  18.430	 110.245
 2205	  0.2140	 18.4375	  18.438	 110.295
 2206	  0.2136	 18.4462	  18.446	 110.345
 2207	  0.2140	 18.4550	  18.455	 110.395
 2208	  0.2140	 18.4625	  18.462	 110.445
 2209	  0.2136	 18.4713	  18.471	 110.495
 2210	  0.2144	 18.4800	  18.480	 110.545
 2211	  0.2136	 18.4888	  18.489	 110.595
 2212	  0.2144	 18.4963	  18.496	 110.645
 2213	  0.2148	 18.5050	  18.505	 110.695
 2214	  0.2148	 18.5138	  18.514	 110.745
 2215	  0.2144	 18.5212	  18.521	 110.795
 2216	  0.2144	 18.5300	  18.530	 110.845
 2217	  0.2140	 18.5387	  18.539	 110.895
 2218	  0.2144	 18.5462	  18.546	 110.945
 2219	  0.2148	 18.5550	  18.555	 110.995
 2220	  0.2148	 18.5637	  18.564	 111.045
 2221	  0.2144	 18.5725	  18.573	 111.095
 2222	  0.2144	 18.5800	  18.580	 111.145
 2223	  0.2140	 18.5887	  18.589	 111.195
 2224	  0.2144	 18.5975	  18.597	 111.245
 2225	  0.2152	 18.6050	  18.605	 111.295
 2226	  0.2152	 18.6138	  18.614	 111.345
 2227	  0.2144	 18.6225	  18.622	 111.395
 2228	  0.2148	 18.6300	  18.630	 111.445
 2229	  0.2152	 18.6388	  18.639	 111.495
 2230	  0.2152	 18.6475	  18.647	 111.545
 2231	  0.2148	 18.6562	  18.656	 111.595
 2232	  0.2152	 18.6637	  18.664	 111.645
 2233	  0.2152	 18.6725	  18.672	 111.695
 2234	  0.2144	 18.6812	  18.681	 111.745
 2235	  0.2144	 18.6900	  18.690	 111.795
 2236	  0.2152	 18.6975	  18.698	 111.845
 2237	  0.2148	 18.7062	  18.706	 111.895
 2238	  0.2152	 18.7137	  18.714	 111.945
 2239	  0.2148	 18.7225	  18.722	 111.995
 2240	  0.2152	 18.7312	  18.731	 112.045
 2241	  0.2152	 18.7400	  18.740	 112.095
 2242	  0.2152	 18.7475	  18.747	 112.145
 2243	  0.2152	 18.7563	  18.756	 112.195
 2244	  0.2144	 18.7650	  18.765	 112.245
 2245	  0.2144	 18.7725	  18.772	 112.295
 2246	  0.2152	 18.7812	  18.781	 112.345
 2247	  0.2144	 18.7900	  18.790	 112.395
 2248	  0.2148	 18.7975	  18.797	 112.445
 2249	  0.2152	 18.8062	  18.806	 112.495
 2250	  0.2148	 18.8150	  18.815	 112.545
 2251	  0.2152	 18.8237	  18.824	 112.595
 2252	  0.2160	 18.8312	  18.831	 112.645
 2253	  0.2160	 18.8400	  18.840	 112.695
 2254	  0.2164	 18.8487	  18.849	 112.745
 2255	  0.2160	 18.8562	  18.856	 112.795
 2256	  0.2160	 18.8650	  18.865	 112.845
 2257	  0.2164	 18.8737	  18.874	 112.895
 2258	  0.2164	 18.8813	  18.881	 112.945
 2259	  0.2164	 18.8900	  18.890	 112.995
 2260	  0.2160	 18.8988	  18.899	 113.045
 2261	  0.2168	 18.9062	  18.906	 113.095
 2262	  0.2172	 18.9150	  18.915	 113.145
 2263	  0.2168	 18.9237	  18.924	 113.195
 2264	  0.2164	 18.9312	  18.931	 113.245
 2265	  0.2164	 18.9400	  18.940	 113.295
 2266	  0.2164	 18.9487	  18.949	 113.345
 2267	  0.2156	 18.9575	  18.958	 113.395
 2268	  0.2164	 18.9650	  18.965	 113.445
 2269	  0.2160	 18.9737	  18.974	 113.495
 2270	  0.2160	 18.9825	  18.983	 113.545
 2271	  0.2164	 18.9900	  18.990	 113.595
 2272	  0.2168	 18.9987	  18.999	 113.645
 2273	  0.2168	 19.0075	  19.007	 113.695
 2274	  0.2164	 19.0162	  19.016	 113.745
 2275	  0.2164	 19.0238	  19.024	 113.795
 2276	  0.2160	 19.0325	  19.032	 113.845
 2277	  0.2164	 19.0400	  19.040	 113.895
 2278	  0.2164	 19.0487	  19.049	 113.945
 2279	  0.2156	 19.0575	  19.057	 113.995
 2280	  0.2160	 19.0662	  19.066	 114.045
 2281	  0.2160	 19.0737	  19.074	 114.095
 2282	  0.2172	 19.0825	  19.083	 114.145
 2283	  0.2172	 19.0912	  19.091	 114.195
 2284	  0.2172	 19.0987	  19.099	 114.245
 2285	  0.2172	 19.1075	  19.108	 114.295
 2286	  0.2168	 19.1162	  19.116	 114.345
 2287	  0.2172	 19.1237	  19.124	 114.395
 2288	  0.2172	 19.1325	  19.132	 114.445
 2289	  0.2176	 19.1412	  19.141	 114.495
 2290	  0.2172	 19.1488	  19.149	 114.545
 2291	  0.2172	 19.1575	  19.157	 114.595
 2292	  0.2168	 19.1663	  19.166	 114.645
 2293	  0.2168	 19.1737	  19.174	 114.695
 2294	  0.2168	 19.1825	  19.182	 114.745
 2295	  0.2168	 19.1912	  19.191	 114.795
 2296	  0.2176	 19.2000	  19.200	 114.845
 2297	  0.2180	 19.2075	  19.208	 114.895
 2298	  0.2172	 19.2162	  19.216	 114.945
 2299	  0.2176	 19.2250	  19.225	 114.995
 2300	  0.2172	 19.2325	  19.233	 115.045
 2301	  0.2180	 19.2412	  19.241	 115.095
 2302	  0.2180	 19.2500	  19.250	 115.145
 2303	  0.2184	 19.2575	  19.257	 115.195
 2304	  0.2180	 19.2662	  19.266	 115.245
 2305	  0.2180	 19.2750	  19.275	 115.295
 2306	  0.2176	 19.2837	  19.284	 115.345
 2307	  0.2172	 19.2913	  19.291	 115.395
 2308	  0.2184	 19.3000	  19.300	 115.445
 2309	  0.2180	 19.3075	  19.307	 115.495
 2310	  0.2176	 19.3162	  19.316	 115.545
 2311	  0.2180	 19.3250	  19.325	 115.595
 2312	  0.2176	 19.3337	  19.334	 115.645
 2313	  0.2180	 19.3412	  19.341	 115.695
 2314	  0.2180	 19.3500	  19.350	 115.745
 2315	  0.2180	 19.3587	  19.359	 115.795
 2316	  0.2180	 19.3662	  19.366	 115.845
 2317	  0.2184	 19.3750	  19.375	 115.895
 2318	  0.2184	 19.3825	  19.382	 115.945
 2319	  0.2188	 19.3912	  19.391	 115.995
 2320	  0.2184	 19.4000	  19.400	 116.045
 2321	  0.2180	 19.4075	  19.407	 116.095
 2322	  0.2188	 19.4163	  19.416	 116.145
 2323	  0.2184	 19.4250	  19.425	 116.195
 2324	  0.2180	 19.4325	  19.432	 116.245
 2325	  0.2184	 19.4412	  19.441	 116.295
 2326	  0.2188	 19.4500	  19.450	 116.345
 2327	  0.2188	 19.4587	  19.459	 116.395
 2328	  0.2184	 19.4662	  19.466	 116.445
 2329	  0.2180	 19.4750	  19.475	 116.495
 2330	  0.2180	 19.4837	  19.484	 116.545
 2331	  0.2184	 19.4912	  19.491	 116.595
 2332	  0.2184	 19.5000	  19.500	 116.645
 2333	  0.2184	 19.5087	  19.509	 116.695
 2334	  0.2188	 19.5162	  19.516	 116.745
 2335	  0.2184	 19.5250	  19.525	 116.795
 2336	  0.2188	 19.5337	  19.534	 116.845
 2337	  0.2188	 19.5413	  19.541	 116.895
 2338	  0.2200	 19.5500	  19.550	 116.945
 2339	  0.2192	 19.5588	  19.559	 116.995
 2340	  0.2196	 19.5662	  19.566	 117.045
 2341	  0.2196	 19.5750	  19.575	 117.095
 2342	  0.2192	 19.5837	  19.584	 117.145
 2343	  0.2196	 19.5912	  19.591	 117.195
 2344	  0.2200	 19.6000	  19.600	 117.245
 2345	  0.2192	 19.6087	  19.609	 117.295
 2346	  0.2196	 19.6162	  19.616	 117.345
 2347	  0.2188	 19.6250	  19.625	 117.395
 2348	  0.2196	 19.6337	  19.634	 117.445
 2349	  0.2188	 19.6412	  19.641	 117.495
 2350	  0.2200	 19.6500	  19.650	 117.545
 2351	  0.2200	 19.6587	  19.659	 117.595
 2352	  0.2200	 19.6663	  19.666	 117.645
 2353	  0.2200	 19.6750	  19.675	 117.695
 2354	  0.2196	 19.6838	  19.684	 117.745
 2355	  0.2200	 19.6912	  19.691	 117.795
 2356	  0.2196	 19.7000	  19.700	 117.845
 2357	  0.2200	 19.7087	  19.709	 117.895
 2358	  0.2200	 19.7162	  19.716	 117.945
 2359	  0.2200	 19.7250	  19.725	 117.995
 2360	  0.2200	 19.7337	  19.734	 118.045
 2361	  0.2200	 19.7412	  19.741	 118.095
 2362	  0.2196	 19.7500	  19.750	 118.145
 2363	  0.2200	 19.7587	  19.759	 118.195
 2364	  0.2200	 19.7662	  19.766	 118.245
 2365	  0.2200	 19.7750	  19.775	 118.295
 2366	  0.2200	 19.7837	  19.784	 118.345
 2367	  0.2204	 19.7913	  19.791	 118.395
 2368	  0.2204	 19.8000	  19.800	 118.445
 2369	  0.2204	 19.8088	  19.809	 118.495
 2370	  0.2204	 19.8162	  19.816	 118.545
 2371	  0.2200	 19.8250	  19.825	 118.595
 2372	  0.2204	 19.8337	  19.834	 118.645
 2373	  0.2204	 19.8412	  19.841	 118.695
 2374	  0.2204	 19.8500	  19.850	 118.745
 2375	  0.2204	 19.8587	  19.859	 118.795
 2376	  0.2204	 19.8662	  19.866	 118.845
 2377	  0.2200	 19.8750	  19.875	 118.895
 2378	  0.2208	 19.8837	  19.884	 118.945
 2379	  0.2208	 19.8912	  19.891	 118.995
 2380	  0.2208	 19.9000	  19.900	 119.045
 2381	  0.2212	 19.9087	  19.909	 119.095
 2382	  0.2212	 19.9175	  19.917	 119.145
 2383	  0.2212	 19.9250	  19.925	 119.195
 2384	  0.2208	 19.9338	  19.934	 119.245
 2385	  0.2216	 19.9425	  19.942	 119.295
 2386	  0.2208	 19.9500	  19.950	 119.345
 2387	  0.2208	 19.9587	  19.959	 119.395
 2388	  0.2216	 19.9675	  19.967	 119.445
 2389	  0.2212	 19.9750	  19.975	 119.495
 2390	  0.2208	 19.9837	  19.984	 119.545
 2391	  0.2208	 19.9925	  19.993	 119.595
 2392	  0.2216	 20.0000	  20.000	 119.645
 2393	  0.2216	 20.0087	  20.009	 119.695
 2394	  0.2212	 20.0175	  20.017	 119.745
 2395	  0.2212	 20.0262	  20.026	 119.795
 2396	  0.2216	 20.0337	  20.034	 119.845
 2397	  0.2220	 20.0425	  20.042	 119.895
 2398	  0.2216	 20.0513	  20.051	 119.945
 2399	  0.2216	 20.0588	  20.059	 119.995
 2400	  0.2224	 20.0675	  20.067	 120.045
 2401	  0.2224	 20.0763	  20.076	 120.095
 2402	  0.2224	 20.0837	  20.084	 120.145
 2403	  0.2220	 20.0925	  20.092	 120.195
 2404	  0.2224	 20.1012	  20.101	 120.245
 2405	  0.2220	 20.1100	  20.110	 120.295
 2406	  0.2224	 20.1175	  20.118	 120.345
 2407	  0.2224	 20.1262	  20.126	 120.395
 2408	  0.2220	 20.1337	  20.134	 120.445
 2409	  0.2224	 20.1425	  20.142	 120.495
 2410	  0.2220	 20.1512	  20.151	 120.545
 2411	  0.2220	 20.1600	  20.160	 120.595
 2412	  0.2224	 20.1675	  20.167	 120.645
 2413	  0.2220	 20.1763	  20.176	 120.695
 2414	  0.2216	 20.1850	  20.185	 120.745
 2415	  0.2224	 20.1925	  20.192	 120.795
 2416	  0.2228	 20.2013	  20.201	 120.845
 2417	  0.2220	 20.2100	  20.210	 120.895
 2418	  0.2228	 20.2175	  20.217	 120.945
 2419	  0.2232	 20.2262	  20.226	 120.995
 2420	  0.2232	 20.2350	  20.235	 121.045
 2421	  0.2228	 20.2425	  20.243	 121.095
 2422	  0.2224	 20.2512	  20.251	 121.145
 2423	  0.2228	 20.2600	  20.260	 121.195
 2424	  0.2228	 20.2687	  20.269	 121.245
 2425	  0.2236	 20.2762	  20.276	 121.295
 2426	  0.2228	 20.2850	  20.285	 121.345
 2427	  0.2232	 20.2937	  20.294	 121.395
 2428	  0.2224	 20.3013	  20.301	 121.445
 2429	  0.2228	 20.3100	  20.310	 121.495
 2430	  0.2232	 20.3188	  20.319	 121.545
 2431	  0.2228	 20.3275	  20.327	 121.595
 2432	  0.2236	 20.3350	  20.335	 121.645
 2433	  0.2232	 20.3438	  20.344	 121.695
 2434	  0.2236	 20.3525	  20.352	 121.745
 2435	  0.2236	 20.3600	  20.360	 121.795
 2436	  0.2232	 20.3687	  20.369	 121.845
 2437	  0.2232	 20.3775	  20.377	 121.895
 2438	  0.2232	 20.3850	  20.385	 121.945
 2439	  0.2228	 20.3937	  20.394	 121.995
 2440	  0.2236	 20.4025	  20.403	 122.045
 2441	  0.2232	 20.4100	  20.410	 122.095
 2442	  0.2240	 20.4187	  20.419	 122.145
 2443	  0.2236	 20.4275	  20.427	 122.195
 2444	  0.2232	 20.4362	  20.436	 122.245
 2445	  0.2236	 20.4438	  20.444	 122.295
 2446	  0.2232	 20.4525	  20.452	 122.345
 2447	  0.2236	 20.4613	  20.461	 122.395
 2448	  0.2236	 20.4688	  20.469	 122.445
 2449	  0.2240	 20.4775	  20.477	 122.495
 2450	  0.2240	 20.4862	  20.486	 122.545
 2451	  0.2236	 20.4937	  20.494	 122.595
 2452	  0.2236	 20.5025	  20.502	 122.645
 2453	  0.2236	 20.5112	  20.511	 122.695
 2454	  0.2236	 20.5187	  20.519	 122.745
 2455	  0.2236	 20.5275	  20.528	 122.795
 2456	  0.2240	 20.5362	  20.536	 122.845
 2457	  0.2244	 20.5437	  20.544	 122.895
 2458	  0.2244	 20.5525	  20.552	 122.945
 2459	  0.2244	 20.5612	  20.561	 122.995
 2460	  0.2244	 20.5700	  20.570	 123.045
 2461	  0.2248	 20.5775	  20.577	 123.095
 2462	  0.2244	 20.5863	  20.586	 123.145
 2463	  0.2244	 20.5950	  20.595	 123.195
 2464	  0.2236	 20.6025	  20.602	 123.245
 2465	  0.2244	 20.6112	  20.611	 123.295
 2466	  0.2244	 20.6200	  20.620	 123.345
 2467	  0.2244	 20.6275	  20.627	 123.395
 2468	  0.2240	 20.6362	  20.636	 123.445
 2469	  0.2248	 20.6450	  20.645	 123.495
 2470	  0.2248	 20.6525	  20.653	 123.545
 2471	  0.2244	 20.6612	  20.661	 123.595
 2472	  0.2248	 20.6687	  20.669	 123.645
 2473	  0.2252	 20.6775	  20.677	 123.695
 2474	  0.2252	 20.6862	  20.686	 123.745
 2475	  0.2252	 20.6938	  20.694	 123.795
 2476	  0.2240	 20.7025	  20.702	 123.845
 2477	  0.2244	 20.7113	  20.711	 123.895
 2478	  0.2244	 20.7188	  20.719	 123.945
 2479	  0.2244	 20.7275	  20.727	 123.995
 2480	  0.2252	 20.7362	  20.736	 124.045
 2481	  0.2248	 20.7450	  20.745	 124.095
 2482	  0.2252	 20.7525	  20.752	 124.145
 2483	  0.2252	 20.7612	  20.761	 124.195
 2484	  0.2252	 20.7700	  20.770	 124.245
 2485	  0.2252	 20.7775	  20.778	 124.295
 2486	  0.2256	 20.7862	  20.786	 124.345
 2487	  0.2252	 20.7950	  20.795	 124.395
 2488	  0.2252	 20.8025	  20.802	 124.445
 2489	  0.2256	 20.8112	  20.811	 124.495
 2490	  0.2252	 20.8200	  20.820	 124.545
 2491	  0.2252	 20.8275	  20.827	 124.595
 2492	  0.2248	 20.8363	  20.836	 124.645
 2493	  0.2248	 20.8438	  20.844	 124.695
 2494	  0.2248	 20.8525	  20.852	 124.745
 2495	  0.2252	 20.8612	  20.861	 124.795
 2496	  0.2248	 20.8700	  20.870	 124.845
 2497	  0.2248	 20.8775	  20.877	 124.895
 2498	  0.2248	 20.8862	  20.886	 124.945
 2499	  0.2252	 20.8937	  20.894	 124.995
 2500	  0.2252	 20.9025	  20.903	 125.045
 2501	  0.2256	 20.9112	  20.911	 125.095
 2502	  0.2252	 20.9187	  20.919	 125.145
 2503	  0.2248	 20.9275	  20.927	 125.195
 2504	  0.2252	 20.9362	  20.936	 125.245
 2505	  0.2252	 20.9438	  20.944	 125.295
 2506	  0.2256	 20.9525	  20.952	 125.345
 2507	  0.2252	 20.9600	  20.960	 125.395
 2508	  0.2248	 20.9688	  20.969	 125.445
 2509	  0.2244	 20.9775	  20.977	 125.495
 2510	  0.2248	 20.9862	  20.986	 125.545
 2511	  0.2252	 20.9937	  20.994	 125.595
 2512	  0.2252	 21.0025	  21.002	 125.645
 2513	  0.2256	 21.0100	  21.010	 125.695
 2514	  0.2248	 21.0187	  21.019	 125.745
 2515	  0.2252	 21.0275	  21.028	 125.795
 2516	  0.2248	 21.0362	  21.036	 125.845
 2517	  0.2252	 21.0437	  21.044	 125.895
 2518	  0.2252	 21.0525	  21.052	 125.945
 2519	  0.2256	 21.0600	  21.060	 125.995
 2520	  0.2252	 21.0688	  21.069	 126.045
 2521	  0.2252	 21.0775	  21.077	 126.095
 2522	  0.2260	 21.0863	  21.086	 126.145
 2523	  0.2260	 21.0938	  21.094	 126.195
 2524	  0.2256	 21.1025	  21.102	 126.245
 2525	  0.2264	 21.1112	  21.111	 126.295
 2526	  0.2256	 21.1187	  21.119	 126.345
 2527	  0.2252	 21.1275	  21.127	 126.395
 2528	  0.2256	 21.1362	  21.136	 126.445
 2529	  0.2252	 21.1437	  21.144	 126.495
 2530	  0.2260	 21.1525	  21.153	 126.545
 2531	  0.2260	 21.1612	  21.161	 126.595
 2532	  0.2260	 21.1687	  21.169	 126.645
 2533	  0.2252	 21.1775	  21.177	 126.695
 2534	  0.2256	 21.1850	  21.185	 126.745
 2535	  0.2256	 21.1938	  21.194	 126.795
 2536	  0.2264	 21.2025	  21.202	 126.845
 2537	  0.2260	 21.2100	  21.210	 126.895
 2538	  0.2260	 21.2188	  21.219	 126.945
 2539	  0.2268	 21.2275	  21.227	 126.995
 2540	  0.2272	 21.2362	  21.236	 127.045
 2541	  0.2264	 21.2437	  21.244	 127.095
 2542	  0.2268	 21.2525	  21.252	 127.145
 2543	  0.2264	 21.2600	  21.260	 127.195
 2544	  0.2272	 21.2687	  21.269	 127.245
 2545	  0.2264	 21.2775	  21.278	 127.295
 2546	  0.2260	 21.2862	  21.286	 127.345
 2547	  0.2264	 21.2937	  21.294	 127.395
 2548	  0.2268	 21.3025	  21.302	 127.445
 2549	  0.2272	 21.3112	  21.311	 127.495
 2550	  0.2268	 21.3188	  21.319	 127.545
 2551	  0.2260	 21.3275	  21.327	 127.595
 2552	  0.2264	 21.3363	  21.336	 127.645
 2553	  0.2268	 21.3438	  21.344	 127.695
 2554	  0.2268	 21.3525	  21.352	 127.745
 2555	  0.2268	 21.3612	  21.361	 127.795
 2556	  0.2268	 21.3687	  21.369	 127.845
 2557	  0.2268	 21.3775	  21.377	 127.895
 2558	  0.2272	 21.3862	  21.386	 127.945
 2559	  0.2268	 21.3937	  21.394	 127.995
 2560	  0.2272	 21.4025	  21.403	 128.045
 2561	  0.2276	 21.4112	  21.411	 128.095
 2562	  0.2268	 21.4187	  21.419	 128.145
 2563	  0.2268	 21.4275	  21.427	 128.195
 2564	  0.2268	 21.4362	  21.436	 128.245
 2565	  0.2276	 21.4450	  21.445	 128.295
 2566	  0.2272	 21.4525	  21.452	 128.345
 2567	  0.2272	 21.4613	  21.461	 128.395
 2568	  0.2272	 21.4700	  21.470	 128.445
 2569	  0.2268	 21.4775	  21.477	 128.495
 2570	  0.2276	 21.4862	  21.486	 128.545
 2571	  0.2272	 21.4950	  21.495	 128.595
 2572	  0.2276	 21.5025	  21.502	 128.645
 2573	  0.2276	 21.5112	  21.511	 128.695
 2574	  0.2276	 21.5200	  21.520	 128.745
 2575	  0.2276	 21.5275	  21.528	 128.795
 2576	  0.2276	 21.5362	  21.536	 128.845
 2577	  0.2280	 21.5450	  21.545	 128.895
 2578	  0.2280	 21.5525	  21.552	 128.945
 2579	  0.2280	 21.5612	  21.561	 128.995
 2580	  0.2280	 21.5700	  21.570	 129.045
 2581	  0.2280	 21.5787	  21.579	 129.095
 2582	  0.2280	 21.5863	  21.586	 129.145
 2583	  0.2280	 21.5950	  21.595	 129.195
 2584	  0.2280	 21.6038	  21.604	 129.245
 2585	  0.2280	 21.6112	  21.611	 129.295
 2586	  0.2288	 21.6200	  21.620	 129.345
 2587	  0.2288	 21.6287	  21.629	 129.395
 2588	  0.2292	 21.6362	  21.636	 129.445
 2589	  0.2292	 21.6450	  21.645	 129.495
 2590	  0.2292	 21.6537	  21.654	 129.545
 2591	  0.2296	 21.6612	  21.661	 129.595
 2592	  0.2296	 21.6700	  21.670	 129.645
 2593	  0.2296	 21.6787	  21.679	 129.695
 2594	  0.2296	 21.6862	  21.686	 129.745
 2595	  0.2296	 21.6950	  21.695	 129.795
 2596	  0.2292	 21.7037	  21.704	 129.845
 2597	  0.2288	 21.7113	  21.711	 129.895
 2598	  0.2300	 21.7200	  21.720	 129.945
 2599	  0.2296	 21.7288	  21.729	 129.995
 2600	  0.2296	 21.7362	  21.736	 130.045
 2601	  0.2296	 21.7450	  21.745	 130.095
 2602	  0.2292	 21.7537	  21.754	 130.145
 2603	  0.2296	 21.7612	  21.761	 130.195
 2604	  0.2296	 21.7700	  21.770	 130.245
 2605	  0.2296	 21.7787	  21.779	 130.295
 2606	  0.2292	 21.7875	  21.788	 130.345
 2607	  0.2296	 21.7950	  21.795	 130.395
 2608	  0.2292	 21.8037	  21.804	 130.445
 2609	  0.2292	 21.8125	  21.812	 130.495
 2610	  0.2288	 21.8200	  21.820	 130.545
 2611	  0.2292	 21.8287	  21.829	 130.595
 2612	  0.2292	 21.8375	  21.837	 130.645
 2613	  0.2292	 21.8462	  21.846	 130.695
 2614	  0.2292	 21.8538	  21.854	 130.745
 2615	  0.2288	 21.8625	  21.862	 130.795
 2616	  0.2288	 21.8713	  21.871	 130.845
 2617	  0.2292	 21.8787	  21.879	 130.895
 2618	  0.2292	 21.8875	  21.887	 130.945
 2619	  0.2296	 21.8962	  21.896	 130.995
 2620	  0.2292	 21.9037	  21.904	 131.045
 2621	  0.2296	 21.9125	  21.913	 131.095
 2622	  0.2288	 21.9212	  21.921	 131.145
 2623	  0.2292	 21.9287	  21.929	 131.195
 2624	  0.2296	 21.9375	  21.938	 131.245
 2625	  0.2296	 21.9462	  21.946	 131.295
 2626	  0.2296	 21.9537	  21.954	 131.345
 2627	  0.2296	 21.9625	  21.962	 131.395
 2628	  0.2300	 21.9712	  21.971	 131.445
 2629	  0.2304	 21.9788	  21.979	 131.495
 2630	  0.2300	 21.9875	  21.987	 131.545
 2631	  0.2300	 21.9963	  21.996	 131.595
 2632	  0.2304	 22.0050	  22.005	 131.645
 2633	  0.2300	 22.0125	  22.012	 131.695
 2634	  0.2300	 22.0212	  22.021	 131.745
 2635	  0.2308	 22.0300	  22.030	 131.795
 2636	  0.2304	 22.0375	  22.038	 131.845
 2637	  0.2308	 22.0462	  22.046	 131.895
 2638	  0.2308	 22.0550	  22.055	 131.945
 2639	  0.2300	 22.0625	  22.062	 131.995
 2640	  0.2304	 22.0712	  22.071	 132.045
 2641	  0.2304	 22.0800	  22.080	 132.095
 2642	  0.2300	 22.0875	  22.087	 132.145
 2643	  0.2304	 22.0962	  22.096	 132.195
 2644	  0.2304	 22.1050	  22.105	 132.245
 2645	  0.2304	 22.1138	  22.114	 132.295
 2646	  0.2296	 22.1213	  22.121	 132.345
 2647	  0.2308	 22.1300	  22.130	 132.395
 2648	  0.2308	 22.1388	  22.139	 132.445
 2649	  0.2308	 22.1462	  22.146	 132.495
 2650	  0.2304	 22.1550	  22.155	 132.545
 2651	  0.2304	 22.1637	  22.164	 132.595
 2652	  0.2304	 22.1712	  22.171	 132.645
 2653	  0.2312	 22.1800	  22.180	 132.695
 2654	  0.2308	 22.1887	  22.189	 132.745
 2655	  0.2312	 22.1962	  22.196	 132.795
 2656	  0.2312	 22.2050	  22.205	 132.845
 2657	  0.2308	 22.2137	  22.214	 132.895
 2658	  0.2308	 22.2212	  22.221	 132.945
 2659	  0.2312	 22.2300	  22.230	 132.995
 2660	  0.2312	 22.2387	  22.239	 133.045
 2661	  0.2308	 22.2475	  22.247	 133.095
 2662	  0.2308	 22.2550	  22.255	 133.145
 2663	  0.2308	 22.2638	  22.264	 133.195
 2664	  0.2308	 22.2725	  22.272	 133.245
 2665	  0.2316	 22.2800	  22.280	 133.295
 2666	  0.2320	 22.2887	  22.289	 133.345
 2667	  0.2316	 22.2975	  22.297	 133.395
 2668	  0.2320	 22.3062	  22.306	 133.445
 2669	  0.2316	 22.3137	  22.314	 133.495
 2670	  0.2320	 22.3225	  22.323	 133.545
 2671	  0.2320	 22.3312	  22.331	 133.595
 2672	  0.2308	 22.3387	  22.339	 133.645
 2673	  0.2320	 22.3475	  22.347	 133.695
 2674	  0.2312	 22.3562	  22.356	 133.745
 2675	  0.2312	 22.3637	  22.364	 133.795
 2676	  0.2320	 22.3725	  22.372	 133.845
 2677	  0.2320	 22.3813	  22.381	 133.895
 2678	  0.2324	 22.3900	  22.390	 133.945
 2679	  0.2328	 22.3975	  22.397	 133.995
 2680	  0.2320	 22.4062	  22.406	 134.045
 2681	  0.2316	 22.4150	  22.415	 134.095
 2682	  0.2316	 22.4225	  22.422	 134.145
 2683	  0.2320	 22.4312	  22.431	 134.195
 2684	  0.2324	 22.4400	  22.440	 134.245
 2685	  0.2328	 22.4487	  22.449	 134.295
 2686	  0.2320	 22.4562	  22.456	 134.345
 2687	  0.2316	 22.4650	  22.465	 134.395
 2688	  0.2320	 22.4737	  22.474	 134.445
 2689	  0.2320	 22.4812	  22.481	 134.495
 2690	  0.2312	 22.4900	  22.490	 134.545
 2691	  0.2320	 22.4987	  22.499	 134.595
 2692	  0.2320	 22.5063	  22.506	 134.645
 2693	  0.2316	 22.5150	  22.515	 134.695
 2694	  0.2320	 22.5238	  22.524	 134.745
 2695	  0.2312	 22.5325	  22.532	 134.795
 2696	  0.2312	 22.5400	  22.540	 134.845
 2697	  0.2316	 22.5487	  22.549	 134.895
 2698	  0.2316	 22.5575	  22.557	 134.945
 2699	  0.2316	 22.5650	  22.565	 134.995
 2700	  0.2316	 22.5737	  22.574	 135.045
 2701	  0.2308	 22.5825	  22.582	 135.095
 2702	  0.2316	 22.5912	  22.591	 135.145
 2703	  0.2316	 22.5987	  22.599	 135.195
 2704	  0.2312	 22.6075	  22.608	 135.245
 2705	  0.2312	 22.6162	  22.616	 135.295
 2706	  0.2316	 22.6237	  22.624	 135.345
 2707	  0.2316	 22.6325	  22.632	 135.395
 2708	  0.2316	 22.6412	  22.641	 135.445
 2709	  0.2316	 22.6488	  22.649	 135.495
 2710	  0.2316	 22.6575	  22.657	 135.545
 2711	  0.2328	 22.6663	  22.666	 135.595
 2712	  0.2328	 22.6737	  22.674	 135.645
 2713	  0.2332	 22.6825	  22.682	 135.695
 2714	  0.2332	 22.6912	  22.691	 135.745
 2715	  0.2332	 22.7000	  22.700	 135.795
 2716	  0.2324	 22.7075	  22.707	 135.845
 2717	  0.2328	 22.7162	  22.716	 135.895
 2718	  0.2324	 22.7250	  22.725	 135.945
 2719	  0.2328	 22.7325	  22.733	 135.995
 2720	  0.2328	 22.7412	  22.741	 136.045
 2721	  0.2328	 22.7500	  22.750	 136.095
 2722	  0.2336	 22.7575	  22.757	 136.145
 2723	  0.2324	 22.7662	  22.766	 136.195
 2724	  0.2336	 22.7750	  22.775	 136.245
 2725	  0.2332	 22.7825	  22.782	 136.295
 2726	  0.2332	 22.7913	  22.791	 136.345
 2727	  0.2328	 22.8000	  22.800	 136.395
 2728	  0.2324	 22.8075	  22.807	 136.445
 2729	  0.2332	 22.8162	  22.816	 136.495
 2730	  0.2332	 22.8250	  22.825	 136.545
 2731	  0.2328	 22.8337	  22.834	 136.595
 2732	  0.2328	 22.8412	  22.841	 136.645
 2733	  0.2328	 22.8500	  22.850	 136.695
 2734	  0.2328	 22.8587	  22.859	 136.745
 2735	  0.2332	 22.8675	  22.868	 136.795
 2736	  0.2336	 22.8750	  22.875	 136.845
 2737	  0.2332	 22.8837	  22.884	 136.895
 2738	  0.2332	 22.8925	  22.892	 136.945
 2739	  0.2340	 22.9000	  22.900	 136.995
 2740	  0.2332	 22.9087	  22.909	 137.045
 2741	  0.2328	 22.9175	  22.917	 137.095
 2742	  0.2332	 22.9250	  22.925	 137.145
 2743	  0.2336	 22.9338	  22.934	 137.195
 2744	  0.2336	 22.9425	  22.942	 137.245
 2745	  0.2328	 22.9500	  22.950	 137.295
 2746	  0.2332	 22.9587	  22.959	 137.345
 2747	  0.2336	 22.9675	  22.967	 137.395
 2748	  0.2336	 22.9762	  22.976	 137.445
 2749	  0.2340	 22.9837	  22.984	 137.495
 2750	  0.2344	 22.9925	  22.993	 137.545
 2751	  0.2340	 23.0012	  23.001	 137.595
 2752	  0.2340	 23.0087	  23.009	 137.645
 2753	  0.2336	 23.0175	  23.017	 137.695
 2754	  0.2336	 23.0262	  23.026	 137.745
 2755	  0.2336	 23.0337	  23.034	 137.795
 2756	  0.2340	 23.0425	  23.042	 137.845
 2757	  0.2344	 23.0512	  23.051	 137.895
 2758	  0.2340	 23.0588	  23.059	 137.945
 2759	  0.2340	 23.0675	  23.067	 137.995
 2760	  0.2340	 23.0763	  23.076	 138.045
 2761	  0.2340	 23.0850	  23.085	 138.095
 2762	  0.2340	 23.0925	  23.092	 138.145
 2763	  0.2336	 23.1012	  23.101	 138.195
 2764	  0.2340	 23.1100	  23.110	 138.245
 2765	  0.2340	 23.1175	  23.118	 138.295
 2766	  0.2336	 23.1262	  23.126	 138.345
 2767	  0.2340	 23.1350	  23.135	 138.395
 2768	  0.2348	 23.1425	  23.142	 138.445
 2769	  0.2348	 23.1512	  23.151	 138.495
 2770	  0.2344	 23.1600	  23.160	 138.545
 2771	  0.2344	 23.1675	  23.167	 138.595
 2772	  0.2348	 23.1762	  23.176	 138.645
 2773	  0.2352	 23.1850	  23.185	 138.695
 2774	  0.2348	 23.1925	  23.192	 138.745
 2775	  0.2348	 23.2013	  23.201	 138.795
 2776	  0.2348	 23.2100	  23.210	 138.845
 2777	  0.2352	 23.2188	  23.219	 138.895
 2778	  0.2348	 23.2262	  23.226	 138.945
 2779	  0.2344	 23.2350	  23.235	 138.995
 2780	  0.2348	 23.2437	  23.244	 139.045
 2781	  0.2348	 23.2525	  23.252	 139.095
 2782	  0.2352	 23.2600	  23.260	 139.145
 2783	  0.2348	 23.2687	  23.269	 139.195
 2784	  0.2348	 23.2775	  23.278	 139.245
 2785	  0.2348	 23.2850	  23.285	 139.295
 2786	  0.2352	 23.2937	  23.294	 139.345
 2787	  0.2344	 23.3025	  23.302	 139.395
 2788	  0.2348	 23.3100	  23.310	 139.445
 2789	  0.2344	 23.3188	  23.319	 139.495
 2790	  0.2352	 23.3275	  23.327	 139.545
 2791	  0.2348	 23.3350	  23.335	 139.595
 2792	  0.2352	 23.3438	  23.344	 139.645
 2793	  0.2356	 23.3525	  23.352	 139.695
 2794	  0.2352	 23.3600	  23.360	 139.745
 2795	  0.2352	 23.3687	  23.369	 139.795
 2796	  0.2352	 23.3775	  23.377	 139.845
 2797	  0.2352	 23.3862	  23.386	 139.895
 2798	  0.2356	 23.3937	  23.394	 139.945
 2799	  0.2356	 23.4025	  23.403	 139.995
 2800	  0.2356	 23.4112	  23.411	 140.045
 2801	  0.2352	 23.4200	  23.420	 140.095
 2802	  0.2356	 23.4275	  23.427	 140.145
 2803	  0.2360	 23.4362	  23.436	 140.195
 2804	  0.2364	 23.4438	  23.444	 140.245
 2805	  0.2360	 23.4525	  23.452	 140.295
 2806	  0.2360	 23.4613	  23.461	 140.345
 2807	  0.2356	 23.4688	  23.469	 140.395
 2808	  0.2352	 23.4775	  23.477	 140.445
 2809	  0.2356	 23.4862	  23.486	 140.495
 2810	  0.2360	 23.4950	  23.495	 140.545
 2811	  0.2356	 23.5025	  23.502	 140.595
 2812	  0.2356	 23.5112	  23.511	 140.645
 2813	  0.2356	 23.5200	  23.520	 140.695
 2814	  0.2360	 23.5275	  23.528	 140.745
 2815	  0.2364	 23.5362	  23.536	 140.795
 2816	  0.2356	 23.5450	  23.545	 140.845
 2817	  0.2356	 23.5525	  23.552	 140.895
 2818	  0.2356	 23.5612	  23.561	 140.945
 2819	  0.2360	 23.5700	  23.570	 140.995
 2820	  0.2360	 23.5775	  23.577	 141.045
 2821	  0.2368	 23.5863	  23.586	 141.095
 2822	  0.2360	 23.5950	  23.595	 141.145
 2823	  0.2356	 23.6025	  23.602	 141.195
 2824	  0.2364	 23.6112	  23.611	 141.245
 2825	  0.2360	 23.6200	  23.620	 141.295
 2826	  0.2364	 23.6287	  23.629	 141.345
 2827	  0.2368	 23.6362	  23.636	 141.395
 2828	  0.2364	 23.6450	  23.645	 141.445
 2829	  0.2364	 23.6537	  23.654	 141.495
 2830	  0.2364	 23.6612	  23.661	 141.545
 2831	  0.2364	 23.6700	  23.670	 141.595
 2832	  0.2360	 23.6787	  23.679	 141.645
 2833	  0.2360	 23.6862	  23.686	 141.695
 2834	  0.2356	 23.6950	  23.695	 141.745
 2835	  0.2356	 23.7037	  23.704	 141.795
 2836	  0.2360	 23.7113	  23.711	 141.845
 2837	  0.2356	 23.7200	  23.720	 141.895
 2838	  0.2352	 23.7288	  23.729	 141.945
 2839	  0.2356	 23.7362	  23.736	 141.995
 2840	  0.2356	 23.7450	  23.745	 142.045
 2841	  0.2352	 23.7537	  23.754	 142.095
 2842	  0.2364	 23.7612	  23.761	 142.145
 2843	  0.2360	 23.7700	  23.770	 142.195
 2844	  0.2364	 23.7787	  23.779	 142.245
 2845	  0.2360	 23.7862	  23.786	 142.295
 2846	  0.2364	 23.7950	  23.795	 142.345
 2847	  0.2364	 23.8037	  23.804	 142.395
 2848	  0.2356	 23.8125	  23.812	 142.445
 2849	  0.2364	 23.8200	  23.820	 142.495
 2850	  0.2364	 23.8287	  23.829	 142.545
 2851	  0.2360	 23.8375	  23.837	 142.595
 2852	  0.2360	 23.8450	  23.845	 142.645
 2853	  0.2364	 23.8538	  23.854	 142.695
 2854	  0.2368	 23.8625	  23.862	 142.745
 2855	  0.2368	 23.8700	  23.870	 142.795
 2856	  0.2368	 23.8787	  23.879	 142.845
 2857	  0.2368	 23.8875	  23.887	 142.895
 2858	  0.2368	 23.8950	  23.895	 142.945
 2859	  0.2372	 23.9037	  23.904	 142.995
 2860	  0.2360	 23.9125	  23.913	 143.045
 2861	  0.2364	 23.9200	  23.920	 143.095
 2862	  0.2364	 23.9287	  23.929	 143.145
 2863	  0.2360	 23.9375	  23.938	 143.195
 2864	  0.2356	 23.9462	  23.946	 143.245
 2865	  0.2364	 23.9537	  23.954	 143.295
 2866	  0.2364	 23.9625	  23.962	 143.345
 2867	  0.2364	 23.9712	  23.971	 143.395
 2868	  0.2364	 23.9788	  23.979	 143.445
 2869	  0.2364	 23.9875	  23.987	 143.495
 2870	  0.2364	 23.9963	  23.996	 143.545
 2871	  0.2372	 24.0037	  24.004	 143.595
 2872	  0.2368	 24.0125	  24.012	 143.645
 2873	  0.2368	 24.0200	  24.020	 143.695
 2874	  0.2372	 24.0287	  24.029	 143.745
 2875	  0.2368	 24.0375	  24.038	 143.795
 2876	  0.2372	 24.0450	  24.045	 143.845
 2877	  0.2368	 24.0537	  24.054	 143.895
 2878	  0.2368	 24.0625	  24.062	 143.945
 2879	  0.2372	 24.0700	  24.070	 143.995
 2880	  0.2372	 24.0787	  24.079	 144.045
 2881	  0.2368	 24.0875	  24.087	 144.095
 2882	  0.2376	 24.0962	  24.096	 144.145
 2883	  0.2380	 24.1038	  24.104	 144.195
 2884	  0.2380	 24.1125	  24.112	 144.245
 2885	  0.2380	 24.1200	  24.120	 144.295
 2886	  0.2380	 24.1287	  24.129	 144.345
 2887	  0.2376	 24.1375	  24.137	 144.395
 2888	  0.2380	 24.1450	  24.145	 144.445
 2889	  0.2380	 24.1537	  24.154	 144.495
 2890	  0.2380	 24.1625	  24.163	 144.545
 2891	  0.2380	 24.1700	  24.170	 144.595
 2892	  0.2384	 24.1787	  24.179	 144.645
 2893	  0.2384	 24.1875	  24.188	 144.695
 2894	  0.2380	 24.1962	  24.196	 144.745
 2895	  0.2376	 24.2037	  24.204	 144.795
 2896	  0.2380	 24.2125	  24.212	 144.845
 2897	  0.2380	 24.2212	  24.221	 144.895
 2898	  0.2380	 24.2288	  24.229	 144.945
 2899	  0.2380	 24.2375	  24.237	 144.995
 2900	  0.2380	 24.2463	  24.246	 145.045
 2901	  0.2376	 24.2537	  24.254	 145.095
 2902	  0.2376	 24.2625	  24.262	 145.145
 2903	  0.2372	 24.2700	  24.270	 145.195
 2904	  0.2380	 24.2787	  24.279	 145.245
 2905	  0.2384	 24.2875	  24.288	 145.295
 2906	  0.2380	 24.2962	  24.296	 145.345
 2907	  0.2380	 24.3037	  24.304	 145.395
 2908	  0.2380	 24.3125	  24.312	 145.445
 2909	  0.2380	 24.3200	  24.320	 145.495
 2910	  0.2384	 24.3287	  24.329	 145.545
 2911	  0.2380	 24.3375	  24.337	 145.595
 2912	  0.2384	 24.3462	  24.346	 145.645
 2913	  0.2384	 24.3538	  24.354	 145.695
 2914	  0.2380	 24.3625	  24.362	 145.745
 2915	  0.2380	 24.3713	  24.371	 145.795
 2916	  0.2384	 24.3787	  24.379	 145.845
 2917	  0.2380	 24.3875	  24.387	 145.895
 2918	  0.2380	 24.3962	  24.396	 145.945
 2919	  0.2384	 24.4037	  24.404	 145.995
 2920	  0.2388	 24.4125	  24.413	 146.045
 2921	  0.2384	 24.4200	  24.420	 146.095
 2922	  0.2388	 24.4287	  24.429	 146.145
 2923	  0.2384	 24.4375	  24.438	 146.195
 2924	  0.2388	 24.4450	  24.445	 146.245
 2925	  0.2388	 24.4537	  24.454	 146.295
 2926	  0.2388	 24.4625	  24.462	 146.345
 2927	  0.2388	 24.4712	  24.471	 146.395
 2928	  0.2384	 24.4788	  24.479	 146.445
 2929	  0.2384	 24.4875	  24.487	 146.495
 2930	  0.2392	 24.4963	  24.496	 146.545
 2931	  0.2384	 24.5037	  24.504	 146.595
 2932	  0.2388	 24.5125	  24.512	 146.645
 2933	  0.2388	 24.5212	  24.521	 146.695
 2934	  0.2384	 24.5287	  24.529	 146.745
 2935	  0.2388	 24.5375	  24.538	 146.795
 2936	  0.2388	 24.5462	  24.546	 146.845
 2937	  0.2388	 24.5537	  24.554	 146.895
 2938	  0.2392	 24.5625	  24.562	 146.945
 2939	  0.2384	 24.5700	  24.570	 146.995
 2940	  0.2388	 24.5787	  24.579	 147.045
 2941	  0.2388	 24.5875	  24.587	 147.095
 2942	  0.2388	 24.5962	  24.596	 147.145
 2943	  0.2388	 24.6038	  24.604	 147.195
 2944	  0.2388	 24.6125	  24.612	 147.245
 2945	  0.2392	 24.6213	  24.621	 147.295
 2946	  0.2388	 24.6287	  24.629	 147.345
 2947	  0.2388	 24.6375	  24.637	 147.395
 2948	  0.2380	 24.6462	  24.646	 147.445
 2949	  0.2388	 24.6537	  24.654	 147.495
 2950	  0.2380	 24.6625	  24.663	 147.545
 2951	  0.2384	 24.6712	  24.671	 147.595
 2952	  0.2384	 24.6800	  24.680	 147.645
 2953	  0.2388	 24.6875	  24.688	 147.695
 2954	  0.2388	 24.6962	  24.696	 147.745
 2955	  0.2388	 24.7050	  24.705	 147.795
 2956	  0.2392	 24.7125	  24.712	 147.845
 2957	  0.2396	 24.7212	  24.721	 147.895
 2958	  0.2396	 24.7288	  24.729	 147.945
 2959	  0.2396	 24.7375	  24.737	 147.995
 2960	  0.2400	 24.7463	  24.746	 148.045
 2961	  0.2400	 24.7537	  24.754	 148.095
 2962	  0.2404	 24.7625	  24.762	 148.145
 2963	  0.2396	 24.7712	  24.771	 148.195
 2964	  0.2396	 24.7787	  24.779	 148.245
 2965	  0.2396	 24.7875	  24.788	 148.295
 2966	  0.2396	 24.7962	  24.796	 148.345
 2967	  0.2396	 24.8037	  24.804	 148.395
 2968	  0.2396	 24.8125	  24.812	 148.445
 2969	  0.2400	 24.8212	  24.821	 148.495
 2970	  0.2396	 24.8287	  24.829	 148.545
 2971	  0.2396	 24.8375	  24.837	 148.595
 2972	  0.2400	 24.8462	  24.846	 148.645
 2973	  0.2400	 24.8538	  24.854	 148.695
 2974	  0.2404	 24.8625	  24.862	 148.745
 2975	  0.2400	 24.8713	  24.871	 148.795
 2976	  0.2400	 24.8787	  24.879	 148.845
 2977	  0.2400	 24.8875	  24.887	 148.895
 2978	  0.2404	 24.8962	  24.896	 148.945
 2979	  0.2408	 24.9037	  24.904	 148.995
 2980	  0.2404	 24.9125	  24.913	 149.045
 2981	  0.2404	 24.9212	  24.921	 149.095
 2982	  0.2404	 24.9287	  24.929	 149.145
 2983	  0.2404	 24.9375	  24.938	 149.195
 2984	  0.2400	 24.9462	  24.946	 149.245
 2985	  0.2404	 24.9537	  24.954	 149.295
 2986	  0.2404	 24.9625	  24.962	 149.345
 2987	  0.2408	 24.9700	  24.970	 149.395
 2988	  0.2404	 24.9788	  24.979	 149.445
 2989	  0.2404	 24.9875	  24.987	 149.495
 2990	  0.2404	 24.9963	  24.996	 149.545
 2991	  0.2404	 25.0037	  25.004	 149.595
 2992	  0.2404	 25.0125	  25.012	 149.645
 2993	  0.2408	 25.0212	  25.021	 149.695
 2994	  0.2408	 25.0287	  25.029	 149.745
 2995	  0.2408	 25.0375	  25.038	 149.795
 2996	  0.2404	 25.0462	  25.046	 149.845
 2997	  0.2408	 25.0537	  25.054	 149.895
 2998	  0.2412	 25.0625	  25.062	 149.945
 2999	  0.2408	 25.0712	  25.071	 149.995
 3000	  0.2404	 25.0787	  25.079	 150.045
 3001	  0.2400	 25.0875	  25.087	 150.095
 3002	  0.2404	 25.0962	  25.096	 150.145
 3003	  0.2404	 25.1038	  25.104	 150.195
 3004	  0.2416	 25.1125	  25.112	 150.245
 3005	  0.2420	 25.1200	  25.120	 150.295
 3006	  0.2420	 25.1287	  25.129	 150.345
 3007	  0.2412	 25.1375	  25.137	 150.395
 3008	  0.2412	 25.1450	  25.145	 150.445
 3009	  0.2408	 25.1537	  25.154	 150.495
 3010	  0.2408	 25.1625	  25.163	 150.545
 3011	  0.2408	 25.1700	  25.170	 150.595
 3012	  0.2408	 25.1787	  25.179	 150.645
 3013	  0.2408	 25.1875	  25.188	 150.695
 3014	  0.2412	 25.1962	  25.196	 150.745
 3015	  0.2416	 25.2037	  25.204	 150.795
 3016	  0.2404	 25.2125	  25.212	 150.845
 3017	  0.2412	 25.2212	  25.221	 150.895
 3018	  0.2408	 25.2288	  25.229	 150.945
 3019	  0.2408	 25.2375	  25.237	 150.995
 3020	  0.2412	 25.2463	  25.246	 151.045
 3021	  0.2416	 25.2537	  25.254	 151.095
 3022	  0.2416	 25.2625	  25.262	 151.145
 3023	  0.2416	 25.2712	  25.271	 151.195
 3024	  0.2412	 25.2787	  25.279	 151.245
 3025	  0.2416	 25.2875	  25.288	 151.295
 3026	  0.2420	 25.2962	  25.296	 151.345
 3027	  0.2424	 25.3037	  25.304	 151.395
 3028	  0.2416	 25.3125	  25.312	 151.445
 3029	  0.2412	 25.3212	  25.321	 151.495
 3030	  0.2408	 25.3300	  25.330	 151.545
 3031	  0.2408	 25.3375	  25.337	 151.595
 3032	  0.2416	 25.3462	  25.346	 151.645
 3033	  0.2416	 25.3550	  25.355	 151.695
 3034	  0.2416	 25.3625	  25.362	 151.745
 3035	  0.2412	 25.3713	  25.371	 151.795
 3036	  0.2412	 25.3800	  25.380	 151.845
 3037	  0.2412	 25.3875	  25.387	 151.895
 3038	  0.2412	 25.3962	  25.396	 151.945
 3039	  0.2412	 25.4050	  25.405	 151.995
 3040	  0.2408	 25.4125	  25.413	 152.045
 3041	  0.2408	 25.4212	  25.421	 152.095
 3042	  0.2412	 25.4300	  25.430	 152.145
 3043	  0.2408	 25.4375	  25.438	 152.195
 3044	  0.2412	 25.4462	  25.446	 152.245
 3045	  0.2416	 25.4550	  25.455	 152.295
 3046	  0.2416	 25.4637	  25.464	 152.345
 3047	  0.2416	 25.4712	  25.471	 152.395
 3048	  0.2420	 25.4800	  25.480	 152.445
 3049	  0.2416	 25.4887	  25.489	 152.495
 3050	  0.2416	 25.4975	  25.497	 152.545
 3051	  0.2416	 25.5050	  25.505	 152.595
 3052	  0.2416	 25.5138	  25.514	 152.645
 3053	  0.2416	 25.5212	  25.521	 152.695
 3054	  0.2420	 25.5300	  25.530	 152.745
 3055	  0.2416	 25.5387	  25.539	 152.795
 3056	  0.2424	 25.5462	  25.546	 152.845
 3057	  0.2416	 25.5550	  25.555	 152.895
 3058	  0.2416	 25.5637	  25.564	 152.945
 3059	  0.2416	 25.5725	  25.573	 152.995
 3060	  0.2416	 25.5800	  25.580	 153.045
 3061	  0.2420	 25.5887	  25.589	 153.095
 3062	  0.2412	 25.5975	  25.597	 153.145
 3063	  0.2424	 25.6050	  25.605	 153.195
 3064	  0.2416	 25.6137	  25.614	 153.245
 3065	  0.2416	 25.6225	  25.622	 153.295
 3066	  0.2424	 25.6300	  25.630	 153.345
 3067	  0.2420	 25.6388	  25.639	 153.395
 3068	  0.2416	 25.6475	  25.647	 153.445
 3069	  0.2416	 25.6550	  25.655	 153.495
 3070	  0.2416	 25.6637	  25.664	 153.545
 3071	  0.2420	 25.6725	  25.672	 153.595
 3072	  0.2420	 25.6800	  25.680	 153.645
 3073	  0.2416	 25.6887	  25.689	 153.695
 3074	  0.2428	 25.6975	  25.698	 153.745
 3075	  0.2424	 25.7062	  25.706	 153.795
 3076	  0.2428	 25.7137	  25.714	 153.845
 3077	  0.2428	 25.7225	  25.722	 153.895
 3078	  0.2428	 25.7312	  25.731	 153.945
 3079	  0.2416	 25.7400	  25.740	 153.995
 3080	  0.2420	 25.7475	  25.747	 154.045
 3081	  0.2420	 25.7562	  25.756	 154.095
 3082	  0.2424	 25.7650	  25.765	 154.145
 3083	  0.2424	 25.7725	  25.772	 154.195
 3084	  0.2424	 25.7812	  25.781	 154.245
 3085	  0.2420	 25.7900	  25.790	 154.295
 3086	  0.2424	 25.7975	  25.797	 154.345
 3087	  0.2428	 25.8062	  25.806	 154.395
 3088	  0.2428	 25.8150	  25.815	 154.445
 3089	  0.2424	 25.8225	  25.823	 154.495
 3090	  0.2432	 25.8312	  25.831	 154.545
 3091	  0.2424	 25.8400	  25.840	 154.595
 3092	  0.2428	 25.8475	  25.847	 154.645
 3093	  0.2428	 25.8562	  25.856	 154.695
 3094	  0.2428	 25.8650	  25.865	 154.745
 3095	  0.2428	 25.8737	  25.874	 154.795
 3096	  0.2428	 25.8812	  25.881	 154.845
 3097	  0.2428	 25.8900	  25.890	 154.895
 3098	  0.2428	 25.8988	  25.899	 154.945
 3099	  0.2420	 25.9062	  25.906	 154.995
 3100	  0.2428	 25.9150	  25.915	 155.045
 3101	  0.2420	 25.9237	  25.924	 155.095
 3102	  0.2428	 25.9325	  25.932	 155.145
 3103	  0.2432	 25.9400	  25.940	 155.195
 3104	  0.2428	 25.9487	  25.949	 155.245
 3105	  0.2424	 25.9575	  25.957	 155.295
 3106	  0.2432	 25.9650	  25.965	 155.345
 3107	  0.2436	 25.9737	  25.974	 155.395
 3108	  0.2432	 25.9825	  25.983	 155.445
 3109	  0.2436	 25.9900	  25.990	 155.495
 3110	  0.2432	 25.9987	  25.999	 155.545
 3111	  0.2428	 26.0075	  26.007	 155.595
 3112	  0.2432	 26.0162	  26.016	 155.645
 3113	  0.2432	 26.0238	  26.024	 155.695
 3114	  0.2428	 26.0325	  26.032	 155.745
 3115	  0.2436	 26.0413	  26.041	 155.795
 3116	  0.2432	 26.0500	  26.050	 155.845
 3117	  0.2436	 26.0575	  26.057	 155.895
 3118	  0.2436	 26.0662	  26.066	 155.945
 3119	  0.2432	 26.0750	  26.075	 155.995
 3120	  0.2428	 26.0825	  26.082	 156.045
 3121	  0.2436	 26.0912	  26.091	 156.095
 3122	  0.2436	 26.1000	  26.100	 156.145
 3123	  0.2436	 26.1075	  26.108	 156.195
 3124	  0.2436	 26.1162	  26.116	 156.245
 3125	  0.2432	 26.1250	  26.125	 156.295
 3126	  0.2440	 26.1325	  26.132	 156.345
 3127	  0.2444	 26.1412	  26.141	 156.395
 3128	  0.2436	 26.1500	  26.150	 156.445
 3129	  0.2436	 26.1587	  26.159	 156.495
 3130	  0.2440	 26.1663	  26.166	 156.545
 3131	  0.2440	 26.1750	  26.175	 156.595
 3132	  0.2440	 26.1838	  26.184	 156.645
 3133	  0.2444	 26.1925	  26.192	 156.695
 3134	  0.2440	 26.2000	  26.200	 156.745
 3135	  0.2440	 26.2087	  26.209	 156.795
 3136	  0.2440	 26.2175	  26.217	 156.845
 3137	  0.2440	 26.2250	  26.225	 156.895
 3138	  0.2432	 26.2337	  26.234	 156.945
 3139	  0.2436	 26.2425	  26.243	 156.995
 3140	  0.2440	 26.2500	  26.250	 157.045
 3141	  0.2444	 26.2587	  26.259	 157.095
 3142	  0.2444	 26.2675	  26.267	 157.145
 3143	  0.2436	 26.2762	  26.276	 157.195
 3144	  0.2436	 26.2837	  26.284	 157.245
 3145	  0.2436	 26.2925	  26.292	 157.295
 3146	  0.2444	 26.3012	  26.301	 157.345
 3147	  0.2444	 26.3100	  26.310	 157.395
 3148	  0.2444	 26.3175	  26.317	 157.445
 3149	  0.2448	 26.3263	  26.326	 157.495
 3150	  0.2444	 26.3350	  26.335	 157.545
 3151	  0.2444	 26.3425	  26.342	 157.595
 3152	  0.2440	 26.3512	  26.351	 157.645
 3153	  0.2436	 26.3600	  26.360	 157.695
 3154	  0.2436	 26.3675	  26.368	 157.745
 3155	  0.2440	 26.3762	  26.376	 157.795
 3156	  0.2444	 26.3850	  26.385	 157.845
 3157	  0.2440	 26.3937	  26.394	 157.895
 3158	  0.2436	 26.4012	  26.401	 157.945
 3159	  0.2440	 26.4100	  26.410	 157.995
 3160	  0.2440	 26.4187	  26.419	 158.045
 3161	  0.2440	 26.4262	  26.426	 158.095
 3162	  0.2444	 26.4350	  26.435	 158.145
 3163	  0.2448	 26.4437	  26.444	 158.195
 3164	  0.2448	 26.4525	  26.452	 158.245
 3165	  0.2448	 26.4600	  26.460	 158.295
 3166	  0.2448	 26.4688	  26.469	 158.345
 3167	  0.2448	 26.4775	  26.477	 158.395
 3168	  0.2448	 26.4862	  26.486	 158.445
 3169	  0.2452	 26.4937	  26.494	 158.495
 3170	  0.2452	 26.5025	  26.502	 158.545
 3171	  0.2452	 26.5112	  26.511	 158.595
 3172	  0.2452	 26.5187	  26.519	 158.645
 3173	  0.2452	 26.5275	  26.528	 158.695
 3174	  0.2456	 26.5362	  26.536	 158.745
 3175	  0.2456	 26.5450	  26.545	 158.795
 3176	  0.2452	 26.5525	  26.552	 158.845
 3177	  0.2456	 26.5612	  26.561	 158.895
 3178	  0.2452	 26.5700	  26.570	 158.945
 3179	  0.2456	 26.5775	  26.577	 158.995
 3180	  0.2464	 26.5863	  26.586	 159.045
 3181	  0.2460	 26.5950	  26.595	 159.095
 3182	  0.2460	 26.6038	  26.604	 159.145
 3183	  0.2460	 26.6112	  26.611	 159.195
 3184	  0.2456	 26.6200	  26.620	 159.245
 3185	  0.2456	 26.6287	  26.629	 159.295
 3186	  0.2452	 26.6362	  26.636	 159.345
 3187	  0.2448	 26.6450	  26.645	 159.395
 3188	  0.2456	 26.6537	  26.654	 159.445
 3189	  0.2460	 26.6612	  26.661	 159.495
 3190	  0.2456	 26.6700	  26.670	 159.545
 3191	  0.2460	 26.6787	  26.679	 159.595
 3192	  0.2456	 26.6875	  26.688	 159.645
 3193	  0.2460	 26.6950	  26.695	 159.695
 3194	  0.2456	 26.7037	  26.704	 159.745
 3195	  0.2456	 26.7125	  26.712	 159.795
 3196	  0.2456	 26.7200	  26.720	 159.845
 3197	  0.2456	 26.7288	  26.729	 159.895
 3198	  0.2456	 26.7375	  26.737	 159.945
 3199	  0.2452	 26.7463	  26.746	 159.995
 3200	  0.2460	 26.7537	  26.754	 160.045
 3201	  0.2464	 26.7625	  26.762	 160.095
 3202	  0.2460	 26.7712	  26.771	 160.145
 3203	  0.2460	 26.7800	  26.780	 160.195
 3204	  0.2460	 26.7875	  26.787	 160.245
 3205	  0.2464	 26.7962	  26.796	 160.295
 3206	  0.2464	 26.8050	  26.805	 160.345
 3207	  0.2464	 26.8125	  26.812	 160.395
 3208	  0.2464	 26.8212	  26.821	 160.445
 3209	  0.2464	 26.8300	  26.830	 160.495
 3210	  0.2460	 26.8387	  26.839	 160.545
 3211	  0.2468	 26.8462	  26.846	 160.595
 3212	  0.2472	 26.8550	  26.855	 160.645
 3213	  0.2468	 26.8637	  26.864	 160.695
 3214	  0.2464	 26.8713	  26.871	 160.745
 3215	  0.2464	 26.8800	  26.880	 160.795
 3216	  0.2460	 26.8888	  26.889	 160.845
 3217	  0.2460	 26.8962	  26.896	 160.895
 3218	  0.2464	 26.9050	  26.905	 160.945
 3219	  0.2460	 26.9137	  26.914	 160.995
 3220	  0.2464	 26.9212	  26.921	 161.045
 3221	  0.2464	 26.9300	  26.930	 161.095
 3222	  0.2452	 26.9387	  26.939	 161.145
 3223	  0.2460	 26.9462	  26.946	 161.195
 3224	  0.2460	 26.9550	  26.955	 161.245
 3225	  0.2460	 26.9637	  26.964	 161.295
 3226	  0.2460	 26.9725	  26.972	 161.345
 3227	  0.2472	 26.9800	  26.980	 161.395
 3228	  0.2464	 26.9887	  26.989	 161.445
 3229	  0.2460	 26.9975	  26.997	 161.495
 3230	  0.2464	 27.0062	  27.006	 161.545
 3231	  0.2468	 27.0138	  27.014	 161.595
 3232	  0.2464	 27.0225	  27.022	 161.645
 3233	  0.2468	 27.0312	  27.031	 161.695
 3234	  0.2472	 27.0387	  27.039	 161.745
 3235	  0.2476	 27.0475	  27.047	 161.795
 3236	  0.2472	 27.0562	  27.056	 161.845
 3237	  0.2472	 27.0650	  27.065	 161.895
 3238	  0.2472	 27.0725	  27.073	 161.945
 3239	  0.2476	 27.0812	  27.081	 161.995
 3240	  0.2476	 27.0900	  27.090	 162.045
 3241	  0.2476	 27.0975	  27.097	 162.095
 3242	  0.2480	 27.1062	  27.106	 162.145
 3243	  0.2472	 27.1150	  27.115	 162.195
 3244	  0.2472	 27.1225	  27.122	 162.245
 3245	  0.2476	 27.1312	  27.131	 162.295
 3246	  0.2480	 27.1400	  27.140	 162.345
 3247	  0.2484	 27.1488	  27.149	 162.395
 3248	  0.2476	 27.1562	  27.156	 162.445
 3249	  0.2476	 27.1650	  27.165	 162.495
 3250	  0.2476	 27.1737	  27.174	 162.545
 3251	  0.2480	 27.1812	  27.181	 162.595
 3252	  0.2480	 27.1900	  27.190	 162.645
 3253	  0.2480	 27.1987	  27.199	 162.695
 3254	  0.2472	 27.2062	  27.206	 162.745
 3255	  0.2472	 27.2150	  27.215	 162.795
 3256	  0.2472	 27.2237	  27.224	 162.845
 3257	  0.2476	 27.2312	  27.231	 162.895
 3258	  0.2472	 27.2400	  27.240	 162.945
 3259	  0.2476	 27.2487	  27.249	 162.995
 3260	  0.2480	 27.2562	  27.256	 163.045
 3261	  0.2476	 27.2650	  27.265	 163.095
 3262	  0.2476	 27.2738	  27.274	 163.145
 3263	  0.2480	 27.2825	  27.282	 163.195
 3264	  0.2476	 27.2900	  27.290	 163.245
 3265	  0.2476	 27.2987	  27.299	 163.295
 3266	  0.2476	 27.3075	  27.307	 163.345
 3267	  0.2480	 27.3150	  27.315	 163.395
 3268	  0.2476	 27.3237	  27.324	 163.445
 3269	  0.2472	 27.3325	  27.332	 163.495
 3270	  0.2476	 27.3412	  27.341	 163.545
 3271	  0.2476	 27.3487	  27.349	 163.595
 3272	  0.2476	 27.3575	  27.358	 163.645
 3273	  0.2476	 27.3662	  27.366	 163.695
 3274	  0.2480	 27.3737	  27.374	 163.745
 3275	  0.2480	 27.3825	  27.382	 163.795
 3276	  0.2484	 27.3912	  27.391	 163.845
 3277	  0.2484	 27.3988	  27.399	 163.895
 3278	  0.2480	 27.4075	  27.407	 163.945
 3279	  0.2480	 27.4163	  27.416	 163.995
 3280	  0.2484	 27.4237	  27.424	 164.045
 3281	  0.2488	 27.4325	  27.432	 164.095
 3282	  0.2484	 27.4400	  27.440	 164.145
 3283	  0.2492	 27.4487	  27.449	 164.195
 3284	  0.2496	 27.4575	  27.457	 164.245
 3285	  0.2488	 27.4662	  27.466	 164.295
 3286	  0.2484	 27.4737	  27.474	 164.345
 3287	  0.2484	 27.4825	  27.483	 164.395
 3288	  0.2484	 27.4912	  27.491	 164.445
 3289	  0.2492	 27.4987	  27.499	 164.495
 3290	  0.2492	 27.5075	  27.507	 164.545
 3291	  0.2484	 27.5162	  27.516	 164.595
 3292	  0.2484	 27.5250	  27.525	 164.645
 3293	  0.2484	 27.5325	  27.532	 164.695
 3294	  0.2484	 27.5413	  27.541	 164.745
 3295	  0.2480	 27.5500	  27.550	 164.795
 3296	  0.2480	 27.5575	  27.557	 164.845
 3297	  0.2480	 27.5662	  27.566	 164.895
 3298	  0.2480	 27.5750	  27.575	 164.945
 3299	  0.2476	 27.5825	  27.582	 164.995
 3300	  0.2484	 27.5912	  27.591	 165.045
 3301	  0.2484	 27.6000	  27.600	 165.095
 3302	  0.2480	 27.6075	  27.608	 165.145
 3303	  0.2480	 27.6162	  27.616	 165.195
 3304	  0.2480	 27.6250	  27.625	 165.245
 3305	  0.2484	 27.6325	  27.632	 165.295
 3306	  0.2472	 27.6412	  27.641	 165.345
 3307	  0.2480	 27.6500	  27.650	 165.395
 3308	  0.2480	 27.6575	  27.657	 165.445
 3309	  0.2480	 27.6650	  27.665	 165.495
 3310	  0.2480	 27.6737	  27.674	 165.545
 3311	  0.2480	 27.6825	  27.682	 165.595
 3312	  0.2480	 27.6900	  27.690	 165.645
 3313	  0.2480	 27.6987	  27.699	 165.695
 3314	  0.2484	 27.7075	  27.707	 165.745
 3315	  0.2480	 27.7150	  27.715	 165.795
 3316	  0.2484	 27.7237	  27.724	 165.845
 3317	  0.2480	 27.7325	  27.733	 165.895
 3318	  0.2484	 27.7400	  27.740	 165.945
 3319	  0.2480	 27.7487	  27.749	 165.995
 3320	  0.2484	 27.7575	  27.757	 166.045
 3321	  0.2476	 27.7650	  27.765	 166.095
 3322	  0.2476	 27.7738	  27.774	 166.145
 3323	  0.2476	 27.7825	  27.782	 166.195
 3324	  0.2476	 27.7900	  27.790	 166.245
 3325	  0.2484	 27.7987	  27.799	 166.295
 3326	  0.2488	 27.8075	  27.807	 166.345
 3327	  0.2480	 27.8150	  27.815	 166.395
 3328	  0.2484	 27.8237	  27.824	 166.445
 3329	  0.2476	 27.8325	  27.832	 166.495
 3330	  0.2484	 27.8412	  27.841	 166.545
 3331	  0.2488	 27.8487	  27.849	 166.595
 3332	  0.2492	 27.8575	  27.858	 166.645
 3333	  0.2492	 27.8662	  27.866	 166.695
 3334	  0.2488	 27.8737	  27.874	 166.745
 3335	  0.2492	 27.8825	  27.882	 166.795
 3336	  0.2488	 27.8912	  27.891	 166.845
 3337	  0.2488	 27.8988	  27.899	 166.895
 3338	  0.2492	 27.9075	  27.907	 166.945
 3339	  0.2496	 27.9163	  27.916	 166.995
 3340	  0.2492	 27.9237	  27.924	 167.045
 3341	  0.2488	 27.9325	  27.932	 167.095
 3342	  0.2480	 27.9412	  27.941	 167.145
 3343	  0.2484	 27.9487	  27.949	 167.195
 3344	  0.2488	 27.9575	  27.957	 167.245
 3345	  0.2488	 27.9662	  27.966	 167.295
 3346	  0.2488	 27.9737	  27.974	 167.345
 3347	  0.2488	 27.9825	  27.983	 167.395
 3348	  0.2492	 27.9912	  27.991	 167.445
 3349	  0.2496	 27.9987	  27.999	 167.495
 3350	  0.2488	 28.0075	  28.007	 167.545
 3351	  0.2496	 28.0162	  28.016	 167.595
 3352	  0.2492	 28.0238	  28.024	 167.645
 3353	  0.2492	 28.0325	  28.032	 167.695
 3354	  0.2496	 28.0413	  28.041	 167.745
 3355	  0.2496	 28.0487	  28.049	 167.795
 3356	  0.2504	 28.0575	  28.057	 167.845
 3357	  0.2496	 28.0662	  28.066	 167.895
 3358	  0.2500	 28.0737	  28.074	 167.945
 3359	  0.2500	 28.0825	  28.082	 167.995
 3360	  0.2500	 28.0912	  28.091	 168.045
 3361	  0.2496	 28.0987	  28.099	 168.095
 3362	  0.2504	 28.1075	  28.108	 168.145
 3363	  0.2500	 28.1162	  28.116	 168.195
 3364	  0.2500	 28.1250	  28.125	 168.245
 3365	  0.2500	 28.1325	  28.132	 168.295
 3366	  0.2496	 28.1412	  28.141	 168.345
 3367	  0.2496	 28.1500	  28.150	 168.395
 3368	  0.2492	 28.1575	  28.157	 168.445
 3369	  0.2500	 28.1663	  28.166	 168.495
 3370	  0.2492	 28.1750	  28.175	 168.545
 3371	  0.2496	 28.1825	  28.182	 168.595
 3372	  0.2496	 28.1912	  28.191	 168.645
 3373	  0.2492	 28.1987	  28.199	 168.695
 3374	  0.2500	 28.2075	  28.207	 168.745
 3375	  0.2496	 28.2162	  28.216	 168.795
 3376	  0.2496	 28.2250	  28.225	 168.845
 3377	  0.2496	 28.2325	  28.233	 168.895
 3378	  0.2496	 28.2412	  28.241	 168.945
 3379	  0.2500	 28.2487	  28.249	 168.995
 3380	  0.2492	 28.2575	  28.257	 169.045
 3381	  0.2500	 28.2662	  28.266	 169.095
 3382	  0.2496	 28.2750	  28.275	 169.145
 3383	  0.2496	 28.2825	  28.282	 169.195
 3384	  0.2496	 28.2913	  28.291	 169.245
 3385	  0.2500	 28.2987	  28.299	 169.295
 3386	  0.2496	 28.3075	  28.307	 169.345
 3387	  0.2500	 28.3162	  28.316	 169.395
 3388	  0.2500	 28.3250	  28.325	 169.445
 3389	  0.2500	 28.3325	  28.332	 169.495
 3390	  0.2500	 28.3412	  28.341	 169.545
 3391	  0.2500	 28.3500	  28.350	 169.595
 3392	  0.2500	 28.3575	  28.358	 169.645
 3393	  0.2500	 28.3662	  28.366	 169.695
 3394	  0.2496	 28.3750	  28.375	 169.745
 3395	  0.2496	 28.3825	  28.382	 169.795
 3396	  0.2500	 28.3912	  28.391	 169.845
 3397	  0.2500	 28.4000	  28.400	 169.895
 3398	  0.2496	 28.4075	  28.407	 169.945
 3399	  0.2496	 28.4163	  28.416	 169.995
 3400	  0.2504	 28.4250	  28.425	 170.045
 3401	  0.2492	 28.4325	  28.432	 170.095
 3402	  0.2492	 28.4412	  28.441	 170.145
 3403	  0.2492	 28.4487	  28.449	 170.195
 3404	  0.2492	 28.4575	  28.457	 170.245
 3405	  0.2492	 28.4662	  28.466	 170.295
 3406	  0.2500	 28.4750	  28.475	 170.345
 3407	  0.2504	 28.4825	  28.483	 170.395
 3408	  0.2500	 28.4912	  28.491	 170.445
 3409	  0.2500	 28.4987	  28.499	 170.495
 3410	  0.2504	 28.5075	  28.507	 170.545
 3411	  0.2496	 28.5162	  28.516	 170.595
 3412	  0.2492	 28.5250	  28.525	 170.645
 3413	  0.2496	 28.5325	  28.532	 170.695
 3414	  0.2496	 28.5413	  28.541	 170.745
 3415	  0.2500	 28.5487	  28.549	 170.795
 3416	  0.2496	 28.5575	  28.557	 170.845
 3417	  0.2492	 28.5662	  28.566	 170.895
 3418	  0.2496	 28.5737	  28.574	 170.945
 3419	  0.2496	 28.5825	  28.582	 170.995
 3420	  0.2500	 28.5912	  28.591	 171.045
 3421	  0.2496	 28.5987	  28.599	 171.095
 3422	  0.2496	 28.6075	  28.608	 171.145
 3423	  0.2500	 28.6162	  28.616	 171.195
 3424	  0.2500	 28.6237	  28.624	 171.245
 3425	  0.2496	 28.6325	  28.632	 171.295
 3426	  0.2492	 28.6412	  28.641	 171.345
 3427	  0.2496	 28.6500	  28.650	 171.395
 3428	  0.2488	 28.6575	  28.657	 171.445
 3429	  0.2496	 28.6663	  28.666	 171.495
 3430	  0.2496	 28.6750	  28.675	 171.545
 3431	  0.2492	 28.6825	  28.682	 171.595
 3432	  0.2496	 28.6912	  28.691	 171.645
 3433	  0.2492	 28.6987	  28.699	 171.695
 3434	  0.2492	 28.7075	  28.707	 171.745
 3435	  0.2488	 28.7162	  28.716	 171.795
 3436	  0.2488	 28.7237	  28.724	 171.845
 3437	  0.2488	 28.7325	  28.733	 171.895
 3438	  0.2488	 28.7412	  28.741	 171.945
 3439	  0.2492	 28.7487	  28.749	 171.995
 3440	  0.2496	 28.7575	  28.757	 172.045
 3441	  0.2496	 28.7662	  28.766	 172.095
 3442	  0.2500	 28.7738	  28.774	 172.145
 3443	  0.2496	 28.7825	  28.782	 172.195
 3444	  0.2488	 28.7913	  28.791	 172.245
 3445	  0.2496	 28.7987	  28.799	 172.295
 3446	  0.2504	 28.8075	  28.807	 172.345
 3447	  0.2496	 28.8162	  28.816	 172.395
 3448	  0.2496	 28.8237	  28.824	 172.445
 3449	  0.2500	 28.8325	  28.832	 172.495
 3450	  0.2496	 28.8412	  28.841	 172.545
 3451	  0.2500	 28.8487	  28.849	 172.595
 3452	  0.2496	 28.8575	  28.858	 172.645
 3453	  0.2492	 28.8662	  28.866	 172.695
 3454	  0.2500	 28.8737	  28.874	 172.745
 3455	  0.2496	 28.8825	  28.882	 172.795
 3456	  0.2500	 28.8912	  28.891	 172.845
 3457	  0.2500	 28.8988	  28.899	 172.895
 3458	  0.2500	 28.9075	  28.907	 172.945
 3459	  0.2500	 28.9163	  28.916	 172.995
 3460	  0.2512	 28.9250	  28.925	 173.045
 3461	  0.2500	 28.9325	  28.932	 173.095
 3462	  0.2508	 28.9412	  28.941	 173.145
 3463	  0.2500	 28.9487	  28.949	 173.195
 3464	  0.2500	 28.9575	  28.957	 173.245
 3465	  0.2508	 28.9662	  28.966	 173.295
 3466	  0.2500	 28.9750	  28.975	 173.345
 3467	  0.2504	 28.9825	  28.983	 173.395
 3468	  0.2496	 28.9912	  28.991	 173.445
 3469	  0.2500	 28.9987	  28.999	 173.495
 3470	  0.2496	 29.0075	  29.007	 173.545
 3471	  0.2492	 29.0150	  29.015	 173.595
 3472	  0.2496	 29.0237	  29.024	 173.645
 3473	  0.2488	 29.0325	  29.032	 173.695
 3474	  0.2488	 29.0400	  29.040	 173.745
 3475	  0.2488	 29.0487	  29.049	 173.795
 3476	  0.2488	 29.0575	  29.057	 173.845
 3477	  0.2492	 29.0650	  29.065	 173.895
 3478	  0.2484	 29.0737	  29.074	 173.945
 3479	  0.2484	 29.0825	  29.082	 173.995
 3480	  0.2492	 29.0912	  29.091	 174.045
 3481	  0.2488	 29.0987	  29.099	 174.095
 3482	  0.2492	 29.1075	  29.108	 174.145
 3483	  0.2492	 29.1162	  29.116	 174.195
 3484	  0.2492	 29.1237	  29.124	 174.245
 3485	  0.2484	 29.1325	  29.132	 174.295
 3486	  0.2476	 29.1412	  29.141	 174.345
 3487	  0.2472	 29.1487	  29.149	 174.395
 3488	  0.0812	 29.1575	  29.157	 174.445
 3489	  0.0012	 29.1650	  29.165	 174.495
 3490	  0.0016	 29.1737	  29.174	 174.545
 3491	  0.0016	 29.1825	  29.182	 174.595
 3492	  0.0012	 29.1912	  29.191	 174.645
 3493	  0.0016	 29.1987	  29.199	 174.695
 3494	  0.0016	 29.2062	  29.206	 174.745
 3495	  0.0016	 29.2150	  29.215	 174.795
 3496	  0.0020	 29.2225	  29.222	 174.845
 3497	  0.0016	 29.2312	  29.231	 174.895
 3498	  0.0016	 29.2387	  29.239	 174.945
 3499	  0.0016	 29.2475	  29.247	 174.995
 3500	  0.0016	 29.2562	  29.256	 175.045
 3501	  0.0012	 29.2638	  29.264	 175.095
 3502	  0.0012	 29.2725	  29.272	 175.145
 3503	  0.0016	 29.2812	  29.281	 175.195
 3504	  0.0016	 29.2887	  29.289	 175.245
 3505	  0.0020	 29.2975	  29.297	 175.295
 3506	  0.0020	 29.3062	  29.306	 175.345
 3507	  0.0020	 29.3137	  29.314	 175.395
 3508	  0.0024	 29.3225	  29.323	 175.445
 3509	  0.0024	 29.3312	  29.331	 175.495
 3510	  0.0024	 29.3387	  29.339	 175.545
 3511	  0.0024	 29.3475	  29.347	 175.595
 3512	  0.0020	 29.3562	  29.356	 175.645
 3513	  0.0016	 29.3637	  29.364	 175.695
 3514	  0.0016	 29.3725	  29.372	 175.745
 3515	  0.0012	 29.3812	  29.381	 175.795
 3516	  0.0024	 29.3888	  29.389	 175.845
 3517	  0.0028	 29.3975	  29.397	 175.895
 3518	  0.0020	 29.4062	  29.406	 175.945
 3519	  0.0012	 29.4137	  29.414	 175.995
 3520	  0.0016	 29.4225	  29.422	 176.045
 3521	  0.0020	 29.4312	  29.431	 176.095
 3522	  0.0020	 29.4387	  29.439	 176.145
 3523	  0.0024	 29.4475	  29.448	 176.195
 3524	  0.0028	 29.4550	  29.455	 176.245
 3525	  0.0024	 29.4625	  29.462	 176.295
 3526	  0.0020	 29.4712	  29.471	 176.345
 3527	  0.0020	 29.4800	  29.480	 176.395
 3528	  0.0016	 29.4875	  29.487	 176.445
ControlMode:	0
Rate:	 10.0000
(null)
4
step	1
0
5.000000
0.000000
1
1
0.500000
2
step	2
1
5.000000
0.000000
1
1
2.000000
3
step	3
5
2.000000
0.000000
1
0
30.000000
4
step	4
8
0.000000
0.000000
0
0
0.000000
0
2
