0
Diameter:	   5.00
   1.00
Area:	  19.6350
GaugeLength:	  50.00
2009-1-1
A3
001
DataNumber:	3117
index	Load(kN)	Defor(mm)	Stroke(mm)	Time(s)
    0	  0.0096	  0.0088	   0.009	   0.045
    1	  0.0100	  0.0162	   0.016	   0.095
    2	  0.0096	  0.0250	   0.025	   0.145
    3	  0.0096	  0.0337	   0.034	   0.195
    4	  0.0096	  0.0412	   0.041	   0.245
    5	  0.0096	  0.0500	   0.050	   0.295
    6	  0.0104	  0.0587	   0.059	   0.345
    7	  0.0100	  0.0662	   0.066	   0.395
    8	  0.0100	  0.0750	   0.075	   0.445
    9	  0.0104	  0.0837	   0.084	   0.495
   10	  0.0096	  0.0912	   0.091	   0.545
   11	  0.0104	  0.1000	   0.100	   0.595
   12	  0.0104	  0.1075	   0.107	   0.645
   13	  0.0108	  0.1163	   0.116	   0.695
   14	  0.0100	  0.1250	   0.125	   0.745
   15	  0.0100	  0.1325	   0.132	   0.795
   16	  0.0100	  0.1412	   0.141	   0.845
   17	  0.0100	  0.1500	   0.150	   0.895
   18	  0.0100	  0.1587	   0.159	   0.945
   19	  0.0104	  0.1662	   0.166	   0.995
   20	  0.0104	  0.1750	   0.175	   1.045
   21	  0.0112	  0.1837	   0.184	   1.095
   22	  0.0112	  0.1912	   0.191	   1.145
   23	  0.0108	  0.2000	   0.200	   1.195
   24	  0.0108	  0.2087	   0.209	   1.245
   25	  0.0108	  0.2163	   0.216	   1.295
   26	  0.0112	  0.2250	   0.225	   1.345
   27	  0.0108	  0.2338	   0.234	   1.395
   28	  0.0108	  0.2425	   0.242	   1.445
   29	  0.0104	  0.2500	   0.250	   1.495
   30	  0.0108	  0.2587	   0.259	   1.545
   31	  0.0112	  0.2662	   0.266	   1.595
   32	  0.0108	  0.2750	   0.275	   1.645
   33	  0.0116	  0.2837	   0.284	   1.695
   34	  0.0108	  0.2912	   0.291	   1.745
   35	  0.0112	  0.3000	   0.300	   1.795
   36	  0.0112	  0.3088	   0.309	   1.845
   37	  0.0116	  0.3162	   0.316	   1.895
   38	  0.0116	  0.3250	   0.325	   1.945
   39	  0.0116	  0.3337	   0.334	   1.995
   40	  0.0120	  0.3425	   0.343	   2.045
   41	  0.0116	  0.3500	   0.350	   2.095
   42	  0.0120	  0.3587	   0.359	   2.145
   43	  0.0116	  0.3675	   0.367	   2.195
   44	  0.0120	  0.3750	   0.375	   2.245
   45	  0.0116	  0.3837	   0.384	   2.295
   46	  0.0116	  0.3925	   0.392	   2.345
   47	  0.0112	  0.4000	   0.400	   2.395
   48	  0.0112	  0.4087	   0.409	   2.445
   49	  0.0108	  0.4162	   0.416	   2.495
   50	  0.0112	  0.4250	   0.425	   2.545
   51	  0.0112	  0.4338	   0.434	   2.595
   52	  0.0120	  0.4412	   0.441	   2.645
   53	  0.0120	  0.4500	   0.450	   2.695
   54	  0.0120	  0.4587	   0.459	   2.745
   55	  0.0120	  0.4675	   0.468	   2.795
   56	  0.0124	  0.4750	   0.475	   2.845
   57	  0.0120	  0.4837	   0.484	   2.895
   58	  0.0116	  0.4925	   0.492	   2.945
   59	  0.0120	  0.5000	   0.500	   2.995
   60	  0.0124	  0.5087	   0.509	   3.045
   61	  0.0128	  0.5163	   0.516	   3.095
   62	  0.0132	  0.5250	   0.525	   3.145
   63	  0.0128	  0.5337	   0.534	   3.195
   64	  0.0128	  0.5425	   0.542	   3.245
   65	  0.0128	  0.5500	   0.550	   3.295
   66	  0.0132	  0.5587	   0.559	   3.345
   67	  0.0124	  0.5662	   0.566	   3.395
   68	  0.0136	  0.5750	   0.575	   3.445
   69	  0.0128	  0.5838	   0.584	   3.495
   70	  0.0128	  0.5925	   0.592	   3.545
   71	  0.0132	  0.6000	   0.600	   3.595
   72	  0.0132	  0.6087	   0.609	   3.645
   73	  0.0132	  0.6175	   0.618	   3.695
   74	  0.0132	  0.6250	   0.625	   3.745
   75	  0.0132	  0.6337	   0.634	   3.795
   76	  0.0132	  0.6425	   0.642	   3.845
   77	  0.0140	  0.6500	   0.650	   3.895
   78	  0.0136	  0.6587	   0.659	   3.945
   79	  0.0132	  0.6662	   0.666	   3.995
   80	  0.0128	  0.6750	   0.675	   4.045
   81	  0.0128	  0.6837	   0.684	   4.095
   82	  0.0132	  0.6925	   0.692	   4.145
   83	  0.0136	  0.7000	   0.700	   4.195
   84	  0.0132	  0.7088	   0.709	   4.245
   85	  0.0140	  0.7175	   0.717	   4.295
   86	  0.0132	  0.7250	   0.725	   4.345
   87	  0.0136	  0.7337	   0.734	   4.395
   88	  0.0136	  0.7425	   0.743	   4.445
   89	  0.0136	  0.7500	   0.750	   4.495
   90	  0.0136	  0.7587	   0.759	   4.545
   91	  0.0136	  0.7675	   0.767	   4.595
   92	  0.0136	  0.7750	   0.775	   4.645
   93	  0.0136	  0.7837	   0.784	   4.695
   94	  0.0148	  0.7925	   0.792	   4.745
   95	  0.0144	  0.8000	   0.800	   4.795
   96	  0.0148	  0.8087	   0.809	   4.845
   97	  0.0144	  0.8162	   0.816	   4.895
   98	  0.0148	  0.8250	   0.825	   4.945
   99	  0.0144	  0.8338	   0.834	   4.995
  100	  0.0140	  0.8413	   0.841	   5.045
  101	  0.0144	  0.8500	   0.850	   5.095
  102	  0.0140	  0.8587	   0.859	   5.145
  103	  0.0144	  0.8675	   0.868	   5.195
  104	  0.0144	  0.8750	   0.875	   5.245
  105	  0.0144	  0.8837	   0.884	   5.295
  106	  0.0148	  0.8925	   0.892	   5.345
  107	  0.0148	  0.9000	   0.900	   5.395
  108	  0.0144	  0.9087	   0.909	   5.445
  109	  0.0148	  0.9175	   0.917	   5.495
  110	  0.0144	  0.9250	   0.925	   5.545
  111	  0.0148	  0.9337	   0.934	   5.595
  112	  0.0152	  0.9425	   0.942	   5.645
  113	  0.0160	  0.9500	   0.950	   5.695
  114	  0.0156	  0.9587	   0.959	   5.745
  115	  0.0152	  0.9663	   0.966	   5.795
  116	  0.0148	  0.9750	   0.975	   5.845
  117	  0.0156	  0.9837	   0.984	   5.895
  118	  0.0160	  0.9925	   0.993	   5.945
  119	  0.0160	  1.0000	   1.000	   5.995
  120	  0.0160	  1.0087	   1.009	   6.045
  121	  0.0164	  1.0163	   1.016	   6.095
  122	  0.0160	  1.0250	   1.025	   6.145
  123	  0.0164	  1.0337	   1.034	   6.195
  124	  0.0160	  1.0425	   1.043	   6.245
  125	  0.0160	  1.0500	   1.050	   6.295
  126	  0.0164	  1.0588	   1.059	   6.345
  127	  0.0160	  1.0675	   1.067	   6.395
  128	  0.0164	  1.0750	   1.075	   6.445
  129	  0.0168	  1.0838	   1.084	   6.495
  130	  0.0164	  1.0925	   1.092	   6.545
  131	  0.0164	  1.1000	   1.100	   6.595
  132	  0.0172	  1.1087	   1.109	   6.645
  133	  0.0168	  1.1175	   1.117	   6.695
  134	  0.0172	  1.1250	   1.125	   6.745
  135	  0.0172	  1.1337	   1.134	   6.795
  136	  0.0172	  1.1425	   1.142	   6.845
  137	  0.0172	  1.1500	   1.150	   6.895
  138	  0.0176	  1.1587	   1.159	   6.945
  139	  0.0176	  1.1675	   1.168	   6.995
  140	  0.0176	  1.1762	   1.176	   7.045
  141	  0.0172	  1.1837	   1.184	   7.095
  142	  0.0168	  1.1925	   1.192	   7.145
  143	  0.0168	  1.2012	   1.201	   7.195
  144	  0.0172	  1.2088	   1.209	   7.245
  145	  0.0176	  1.2175	   1.217	   7.295
  146	  0.0180	  1.2262	   1.226	   7.345
  147	  0.0180	  1.2337	   1.234	   7.395
  148	  0.0184	  1.2425	   1.242	   7.445
  149	  0.0180	  1.2513	   1.251	   7.495
  150	  0.0184	  1.2587	   1.259	   7.545
  151	  0.0184	  1.2675	   1.267	   7.595
  152	  0.0184	  1.2763	   1.276	   7.645
  153	  0.0184	  1.2850	   1.285	   7.695
  154	  0.0188	  1.2925	   1.293	   7.745
  155	  0.0196	  1.3012	   1.301	   7.795
  156	  0.0188	  1.3100	   1.310	   7.845
  157	  0.0192	  1.3175	   1.317	   7.895
  158	  0.0192	  1.3262	   1.326	   7.945
  159	  0.0188	  1.3350	   1.335	   7.995
  160	  0.0192	  1.3425	   1.342	   8.045
  161	  0.0192	  1.3512	   1.351	   8.095
  162	  0.0196	  1.3587	   1.359	   8.145
  163	  0.0196	  1.3675	   1.367	   8.195
  164	  0.0200	  1.3763	   1.376	   8.245
  165	  0.0200	  1.3850	   1.385	   8.295
  166	  0.0200	  1.3925	   1.392	   8.345
  167	  0.0200	  1.4013	   1.401	   8.395
  168	  0.0200	  1.4100	   1.410	   8.445
  169	  0.0196	  1.4175	   1.418	   8.495
  170	  0.0196	  1.4262	   1.426	   8.545
  171	  0.0196	  1.4350	   1.435	   8.595
  172	  0.0204	  1.4425	   1.442	   8.645
  173	  0.0200	  1.4512	   1.451	   8.695
  174	  0.0208	  1.4600	   1.460	   8.745
  175	  0.0212	  1.4688	   1.469	   8.795
  176	  0.0208	  1.4762	   1.476	   8.845
  177	  0.0212	  1.4850	   1.485	   8.895
  178	  0.0208	  1.4937	   1.494	   8.945
  179	  0.0212	  1.5012	   1.501	   8.995
  180	  0.0208	  1.5100	   1.510	   9.045
  181	  0.0212	  1.5187	   1.519	   9.095
  182	  0.0212	  1.5263	   1.526	   9.145
  183	  0.0212	  1.5350	   1.535	   9.195
  184	  0.0212	  1.5437	   1.544	   9.245
  185	  0.0216	  1.5512	   1.551	   9.295
  186	  0.0220	  1.5600	   1.560	   9.345
  187	  0.0212	  1.5688	   1.569	   9.395
  188	  0.0212	  1.5762	   1.576	   9.445
  189	  0.0212	  1.5850	   1.585	   9.495
  190	  0.0216	  1.5938	   1.594	   9.545
  191	  0.0216	  1.6012	   1.601	   9.595
  192	  0.0224	  1.6100	   1.610	   9.645
  193	  0.0228	  1.6187	   1.619	   9.695
  194	  0.0224	  1.6262	   1.626	   9.745
  195	  0.0232	  1.6350	   1.635	   9.795
  196	  0.0228	  1.6437	   1.644	   9.845
  197	  0.0232	  1.6513	   1.651	   9.895
  198	  0.0228	  1.6600	   1.660	   9.945
  199	  0.0228	  1.6687	   1.669	   9.995
  200	  0.0228	  1.6762	   1.676	  10.045
  201	  0.0232	  1.6850	   1.685	  10.095
  202	  0.0236	  1.6937	   1.694	  10.145
  203	  0.0236	  1.7025	   1.702	  10.195
  204	  0.0232	  1.7100	   1.710	  10.245
  205	  0.0236	  1.7188	   1.719	  10.295
  206	  0.0236	  1.7275	   1.727	  10.345
  207	  0.0240	  1.7350	   1.735	  10.395
  208	  0.0232	  1.7437	   1.744	  10.445
  209	  0.0232	  1.7525	   1.752	  10.495
  210	  0.0236	  1.7600	   1.760	  10.545
  211	  0.0236	  1.7687	   1.769	  10.595
  212	  0.0240	  1.7775	   1.777	  10.645
  213	  0.0240	  1.7850	   1.785	  10.695
  214	  0.0244	  1.7937	   1.794	  10.745
  215	  0.0236	  1.8025	   1.803	  10.795
  216	  0.0244	  1.8100	   1.810	  10.845
  217	  0.0244	  1.8187	   1.819	  10.895
  218	  0.0248	  1.8275	   1.827	  10.945
  219	  0.0252	  1.8350	   1.835	  10.995
  220	  0.0252	  1.8438	   1.844	  11.045
  221	  0.0252	  1.8525	   1.852	  11.095
  222	  0.0256	  1.8600	   1.860	  11.145
  223	  0.0252	  1.8687	   1.869	  11.195
  224	  0.0256	  1.8775	   1.877	  11.245
  225	  0.0252	  1.8850	   1.885	  11.295
  226	  0.0256	  1.8937	   1.894	  11.345
  227	  0.0252	  1.9025	   1.902	  11.395
  228	  0.0252	  1.9100	   1.910	  11.445
  229	  0.0256	  1.9187	   1.919	  11.495
  230	  0.0260	  1.9275	   1.928	  11.545
  231	  0.0256	  1.9350	   1.935	  11.595
  232	  0.0260	  1.9437	   1.944	  11.645
  233	  0.0256	  1.9525	   1.952	  11.695
  234	  0.0256	  1.9600	   1.960	  11.745
  235	  0.0252	  1.9688	   1.969	  11.795
  236	  0.0260	  1.9775	   1.977	  11.845
  237	  0.0264	  1.9862	   1.986	  11.895
  238	  0.0264	  1.9937	   1.994	  11.945
  239	  0.0264	  2.0025	   2.003	  11.995
  240	  0.0264	  2.0113	   2.011	  12.045
  241	  0.0272	  2.0187	   2.019	  12.095
  242	  0.0272	  2.0275	   2.027	  12.145
  243	  0.0272	  2.0362	   2.036	  12.195
  244	  0.0276	  2.0438	   2.044	  12.245
  245	  0.0268	  2.0525	   2.053	  12.295
  246	  0.0272	  2.0612	   2.061	  12.345
  247	  0.0272	  2.0687	   2.069	  12.395
  248	  0.0272	  2.0775	   2.077	  12.445
  249	  0.0272	  2.0863	   2.086	  12.495
  250	  0.0276	  2.0938	   2.094	  12.545
  251	  0.0276	  2.1025	   2.102	  12.595
  252	  0.0276	  2.1112	   2.111	  12.645
  253	  0.0280	  2.1200	   2.120	  12.695
  254	  0.0280	  2.1275	   2.128	  12.745
  255	  0.0280	  2.1363	   2.136	  12.795
  256	  0.0276	  2.1450	   2.145	  12.845
  257	  0.0276	  2.1525	   2.152	  12.895
  258	  0.0288	  2.1612	   2.161	  12.945
  259	  0.0288	  2.1700	   2.170	  12.995
  260	  0.0296	  2.1788	   2.179	  13.045
  261	  0.0288	  2.1862	   2.186	  13.095
  262	  0.0292	  2.1950	   2.195	  13.145
  263	  0.0292	  2.2037	   2.204	  13.195
  264	  0.0296	  2.2125	   2.212	  13.245
  265	  0.0288	  2.2200	   2.220	  13.295
  266	  0.0292	  2.2287	   2.229	  13.345
  267	  0.0300	  2.2362	   2.236	  13.395
  268	  0.0304	  2.2450	   2.245	  13.445
  269	  0.0304	  2.2537	   2.254	  13.495
  270	  0.0300	  2.2625	   2.263	  13.545
  271	  0.0300	  2.2700	   2.270	  13.595
  272	  0.0304	  2.2787	   2.279	  13.645
  273	  0.0304	  2.2875	   2.287	  13.695
  274	  0.0308	  2.2962	   2.296	  13.745
  275	  0.0304	  2.3038	   2.304	  13.795
  276	  0.0308	  2.3125	   2.312	  13.845
  277	  0.0304	  2.3212	   2.321	  13.895
  278	  0.0308	  2.3300	   2.330	  13.945
  279	  0.0308	  2.3375	   2.337	  13.995
  280	  0.0320	  2.3463	   2.346	  14.045
  281	  0.0320	  2.3550	   2.355	  14.095
  282	  0.0320	  2.3625	   2.362	  14.145
  283	  0.0316	  2.3712	   2.371	  14.195
  284	  0.0316	  2.3800	   2.380	  14.245
  285	  0.0320	  2.3875	   2.388	  14.295
  286	  0.0316	  2.3963	   2.396	  14.345
  287	  0.0320	  2.4050	   2.405	  14.395
  288	  0.0324	  2.4137	   2.414	  14.445
  289	  0.0320	  2.4225	   2.422	  14.495
  290	  0.0324	  2.4300	   2.430	  14.545
  291	  0.0328	  2.4388	   2.439	  14.595
  292	  0.0324	  2.4475	   2.447	  14.645
  293	  0.0332	  2.4562	   2.456	  14.695
  294	  0.0324	  2.4637	   2.464	  14.745
  295	  0.0320	  2.4725	   2.472	  14.795
  296	  0.0324	  2.4813	   2.481	  14.845
  297	  0.0324	  2.4887	   2.489	  14.895
  298	  0.0324	  2.4975	   2.497	  14.945
  299	  0.0328	  2.5062	   2.506	  14.995
  300	  0.0328	  2.5150	   2.515	  15.045
  301	  0.0328	  2.5225	   2.523	  15.095
  302	  0.0328	  2.5312	   2.531	  15.145
  303	  0.0328	  2.5400	   2.540	  15.195
  304	  0.0332	  2.5487	   2.549	  15.245
  305	  0.0332	  2.5562	   2.556	  15.295
  306	  0.0336	  2.5650	   2.565	  15.345
  307	  0.0340	  2.5738	   2.574	  15.395
  308	  0.0336	  2.5825	   2.582	  15.445
  309	  0.0340	  2.5900	   2.590	  15.495
  310	  0.0348	  2.5987	   2.599	  15.545
  311	  0.0344	  2.6063	   2.606	  15.595
  312	  0.0348	  2.6150	   2.615	  15.645
  313	  0.0352	  2.6237	   2.624	  15.695
  314	  0.0356	  2.6325	   2.632	  15.745
  315	  0.0356	  2.6400	   2.640	  15.795
  316	  0.0356	  2.6487	   2.649	  15.845
  317	  0.0356	  2.6575	   2.658	  15.895
  318	  0.0352	  2.6662	   2.666	  15.945
  319	  0.0352	  2.6737	   2.674	  15.995
  320	  0.0356	  2.6825	   2.682	  16.045
  321	  0.0352	  2.6912	   2.691	  16.095
  322	  0.0356	  2.7000	   2.700	  16.145
  323	  0.0364	  2.7075	   2.707	  16.195
  324	  0.0368	  2.7162	   2.716	  16.245
  325	  0.0368	  2.7250	   2.725	  16.295
  326	  0.0368	  2.7325	   2.732	  16.345
  327	  0.0372	  2.7413	   2.741	  16.395
  328	  0.0372	  2.7500	   2.750	  16.445
  329	  0.0376	  2.7587	   2.759	  16.495
  330	  0.0372	  2.7662	   2.766	  16.545
  331	  0.0372	  2.7750	   2.775	  16.595
  332	  0.0368	  2.7837	   2.784	  16.645
  333	  0.0376	  2.7912	   2.791	  16.695
  334	  0.0380	  2.8000	   2.800	  16.745
  335	  0.0388	  2.8087	   2.809	  16.795
  336	  0.0384	  2.8175	   2.817	  16.845
  337	  0.0388	  2.8250	   2.825	  16.895
  338	  0.0388	  2.8338	   2.834	  16.945
  339	  0.0392	  2.8425	   2.842	  16.995
  340	  0.0392	  2.8512	   2.851	  17.045
  341	  0.0396	  2.8587	   2.859	  17.095
  342	  0.0404	  2.8675	   2.867	  17.145
  343	  0.0404	  2.8763	   2.876	  17.195
  344	  0.0396	  2.8837	   2.884	  17.245
  345	  0.0400	  2.8925	   2.892	  17.295
  346	  0.0396	  2.9012	   2.901	  17.345
  347	  0.0400	  2.9087	   2.909	  17.395
  348	  0.0404	  2.9175	   2.918	  17.445
  349	  0.0404	  2.9262	   2.926	  17.495
  350	  0.0408	  2.9337	   2.934	  17.545
  351	  0.0408	  2.9425	   2.942	  17.595
  352	  0.0404	  2.9512	   2.951	  17.645
  353	  0.0412	  2.9600	   2.960	  17.695
  354	  0.0408	  2.9675	   2.967	  17.745
  355	  0.0412	  2.9762	   2.976	  17.795
  356	  0.0412	  2.9850	   2.985	  17.845
  357	  0.0412	  2.9925	   2.992	  17.895
  358	  0.0416	  3.0013	   3.001	  17.945
  359	  0.0420	  3.0100	   3.010	  17.995
  360	  0.0416	  3.0187	   3.019	  18.045
  361	  0.0416	  3.0262	   3.026	  18.095
  362	  0.0416	  3.0350	   3.035	  18.145
  363	  0.0416	  3.0438	   3.044	  18.195
  364	  0.0420	  3.0525	   3.053	  18.245
  365	  0.0420	  3.0600	   3.060	  18.295
  366	  0.0424	  3.0687	   3.069	  18.345
  367	  0.0436	  3.0762	   3.076	  18.395
  368	  0.0436	  3.0850	   3.085	  18.445
  369	  0.0436	  3.0938	   3.094	  18.495
  370	  0.0440	  3.1025	   3.102	  18.545
  371	  0.0444	  3.1100	   3.110	  18.595
  372	  0.0448	  3.1187	   3.119	  18.645
  373	  0.0444	  3.1275	   3.127	  18.695
  374	  0.0448	  3.1350	   3.135	  18.745
  375	  0.0444	  3.1437	   3.144	  18.795
  376	  0.0444	  3.1525	   3.152	  18.845
  377	  0.0440	  3.1600	   3.160	  18.895
  378	  0.0448	  3.1688	   3.169	  18.945
  379	  0.0452	  3.1775	   3.178	  18.995
  380	  0.0448	  3.1862	   3.186	  19.045
  381	  0.0456	  3.1937	   3.194	  19.095
  382	  0.0456	  3.2025	   3.202	  19.145
  383	  0.0456	  3.2112	   3.211	  19.195
  384	  0.0460	  3.2188	   3.219	  19.245
  385	  0.0460	  3.2275	   3.227	  19.295
  386	  0.0452	  3.2362	   3.236	  19.345
  387	  0.0460	  3.2437	   3.244	  19.395
  388	  0.0468	  3.2525	   3.252	  19.445
  389	  0.0464	  3.2613	   3.261	  19.495
  390	  0.0464	  3.2687	   3.269	  19.545
  391	  0.0464	  3.2775	   3.277	  19.595
  392	  0.0468	  3.2862	   3.286	  19.645
  393	  0.0464	  3.2950	   3.295	  19.695
  394	  0.0468	  3.3025	   3.303	  19.745
  395	  0.0468	  3.3112	   3.311	  19.795
  396	  0.0468	  3.3187	   3.319	  19.845
  397	  0.0472	  3.3275	   3.327	  19.895
  398	  0.0476	  3.3362	   3.336	  19.945
  399	  0.0484	  3.3438	   3.344	  19.995
  400	  0.0480	  3.3525	   3.352	  20.045
  401	  0.0476	  3.3612	   3.361	  20.095
  402	  0.0480	  3.3687	   3.369	  20.145
  403	  0.0484	  3.3775	   3.377	  20.195
  404	  0.0488	  3.3863	   3.386	  20.245
  405	  0.0492	  3.3937	   3.394	  20.295
  406	  0.0488	  3.4025	   3.402	  20.345
  407	  0.0492	  3.4112	   3.411	  20.395
  408	  0.0492	  3.4200	   3.420	  20.445
  409	  0.0496	  3.4275	   3.428	  20.495
  410	  0.0492	  3.4362	   3.436	  20.545
  411	  0.0492	  3.4437	   3.444	  20.595
  412	  0.0500	  3.4525	   3.452	  20.645
  413	  0.0500	  3.4612	   3.461	  20.695
  414	  0.0496	  3.4688	   3.469	  20.745
  415	  0.0492	  3.4775	   3.477	  20.795
  416	  0.0492	  3.4862	   3.486	  20.845
  417	  0.0496	  3.4937	   3.494	  20.895
  418	  0.0500	  3.5025	   3.502	  20.945
  419	  0.0500	  3.5113	   3.511	  20.995
  420	  0.0504	  3.5200	   3.520	  21.045
  421	  0.0512	  3.5275	   3.527	  21.095
  422	  0.0508	  3.5362	   3.536	  21.145
  423	  0.0504	  3.5450	   3.545	  21.195
  424	  0.0504	  3.5525	   3.553	  21.245
  425	  0.0512	  3.5612	   3.561	  21.295
  426	  0.0512	  3.5700	   3.570	  21.345
  427	  0.0516	  3.5775	   3.577	  21.395
  428	  0.0508	  3.5862	   3.586	  21.445
  429	  0.0512	  3.5950	   3.595	  21.495
  430	  0.0524	  3.6025	   3.602	  21.545
  431	  0.0520	  3.6112	   3.611	  21.595
  432	  0.0524	  3.6200	   3.620	  21.645
  433	  0.0524	  3.6275	   3.627	  21.695
  434	  0.0516	  3.6363	   3.636	  21.745
  435	  0.0524	  3.6450	   3.645	  21.795
  436	  0.0520	  3.6525	   3.652	  21.845
  437	  0.0528	  3.6612	   3.661	  21.895
  438	  0.0532	  3.6700	   3.670	  21.945
  439	  0.0532	  3.6775	   3.678	  21.995
  440	  0.0536	  3.6862	   3.686	  22.045
  441	  0.0540	  3.6950	   3.695	  22.095
  442	  0.0540	  3.7025	   3.702	  22.145
  443	  0.0548	  3.7112	   3.711	  22.195
  444	  0.0548	  3.7200	   3.720	  22.245
  445	  0.0552	  3.7275	   3.727	  22.295
  446	  0.0560	  3.7362	   3.736	  22.345
  447	  0.0556	  3.7437	   3.744	  22.395
  448	  0.0564	  3.7525	   3.752	  22.445
  449	  0.0564	  3.7613	   3.761	  22.495
  450	  0.0560	  3.7700	   3.770	  22.545
  451	  0.0564	  3.7775	   3.777	  22.595
  452	  0.0572	  3.7862	   3.786	  22.645
  453	  0.0572	  3.7950	   3.795	  22.695
  454	  0.0568	  3.8025	   3.803	  22.745
  455	  0.0572	  3.8112	   3.811	  22.795
  456	  0.0576	  3.8200	   3.820	  22.845
  457	  0.0576	  3.8287	   3.829	  22.895
  458	  0.0576	  3.8362	   3.836	  22.945
  459	  0.0584	  3.8450	   3.845	  22.995
  460	  0.0580	  3.8525	   3.852	  23.045
  461	  0.0588	  3.8612	   3.861	  23.095
  462	  0.0588	  3.8700	   3.870	  23.145
  463	  0.0588	  3.8775	   3.877	  23.195
  464	  0.0588	  3.8863	   3.886	  23.245
  465	  0.0584	  3.8950	   3.895	  23.295
  466	  0.0592	  3.9025	   3.902	  23.345
  467	  0.0596	  3.9112	   3.911	  23.395
  468	  0.0596	  3.9200	   3.920	  23.445
  469	  0.0600	  3.9275	   3.928	  23.495
  470	  0.0596	  3.9362	   3.936	  23.545
  471	  0.0596	  3.9437	   3.944	  23.595
  472	  0.0596	  3.9525	   3.952	  23.645
  473	  0.0596	  3.9612	   3.961	  23.695
  474	  0.0600	  3.9700	   3.970	  23.745
  475	  0.0608	  3.9775	   3.977	  23.795
  476	  0.0612	  3.9862	   3.986	  23.845
  477	  0.0612	  3.9937	   3.994	  23.895
  478	  0.0608	  4.0025	   4.003	  23.945
  479	  0.0616	  4.0113	   4.011	  23.995
  480	  0.0616	  4.0200	   4.020	  24.045
  481	  0.0616	  4.0275	   4.027	  24.095
  482	  0.0612	  4.0363	   4.036	  24.145
  483	  0.0620	  4.0450	   4.045	  24.195
  484	  0.0616	  4.0525	   4.052	  24.245
  485	  0.0620	  4.0612	   4.061	  24.295
  486	  0.0616	  4.0700	   4.070	  24.345
  487	  0.0624	  4.0775	   4.077	  24.395
  488	  0.0628	  4.0862	   4.086	  24.445
  489	  0.0632	  4.0950	   4.095	  24.495
  490	  0.0632	  4.1025	   4.102	  24.545
  491	  0.0632	  4.1112	   4.111	  24.595
  492	  0.0636	  4.1200	   4.120	  24.645
  493	  0.0640	  4.1275	   4.128	  24.695
  494	  0.0636	  4.1363	   4.136	  24.745
  495	  0.0640	  4.1450	   4.145	  24.795
  496	  0.0640	  4.1525	   4.152	  24.845
  497	  0.0644	  4.1613	   4.161	  24.895
  498	  0.0644	  4.1700	   4.170	  24.945
  499	  0.0648	  4.1775	   4.177	  24.995
  500	  0.0648	  4.1862	   4.186	  25.045
  501	  0.0656	  4.1950	   4.195	  25.095
  502	  0.0660	  4.2025	   4.202	  25.145
  503	  0.0660	  4.2112	   4.211	  25.195
  504	  0.0664	  4.2200	   4.220	  25.245
  505	  0.0656	  4.2275	   4.227	  25.295
  506	  0.0664	  4.2362	   4.236	  25.345
  507	  0.0664	  4.2450	   4.245	  25.395
  508	  0.0668	  4.2525	   4.253	  25.445
  509	  0.0672	  4.2613	   4.261	  25.495
  510	  0.0676	  4.2700	   4.270	  25.545
  511	  0.0676	  4.2775	   4.277	  25.595
  512	  0.0680	  4.2863	   4.286	  25.645
  513	  0.0676	  4.2950	   4.295	  25.695
  514	  0.0680	  4.3025	   4.302	  25.745
  515	  0.0680	  4.3112	   4.311	  25.795
  516	  0.0688	  4.3200	   4.320	  25.845
  517	  0.0684	  4.3275	   4.327	  25.895
  518	  0.0688	  4.3362	   4.336	  25.945
  519	  0.0688	  4.3450	   4.345	  25.995
  520	  0.0692	  4.3525	   4.352	  26.045
  521	  0.0688	  4.3612	   4.361	  26.095
  522	  0.0688	  4.3700	   4.370	  26.145
  523	  0.0692	  4.3775	   4.378	  26.195
  524	  0.0696	  4.3863	   4.386	  26.245
  525	  0.0696	  4.3950	   4.395	  26.295
  526	  0.0700	  4.4025	   4.402	  26.345
  527	  0.0704	  4.4113	   4.411	  26.395
  528	  0.0704	  4.4200	   4.420	  26.445
  529	  0.0704	  4.4275	   4.427	  26.495
  530	  0.0704	  4.4362	   4.436	  26.545
  531	  0.0708	  4.4450	   4.445	  26.595
  532	  0.0704	  4.4525	   4.452	  26.645
  533	  0.0704	  4.4612	   4.461	  26.695
  534	  0.0712	  4.4700	   4.470	  26.745
  535	  0.0712	  4.4775	   4.477	  26.795
  536	  0.0708	  4.4862	   4.486	  26.845
  537	  0.0712	  4.4950	   4.495	  26.895
  538	  0.0716	  4.5025	   4.503	  26.945
  539	  0.0716	  4.5113	   4.511	  26.995
  540	  0.0716	  4.5200	   4.520	  27.045
  541	  0.0724	  4.5275	   4.527	  27.095
  542	  0.0720	  4.5363	   4.536	  27.145
  543	  0.0724	  4.5450	   4.545	  27.195
  544	  0.0728	  4.5525	   4.552	  27.245
  545	  0.0724	  4.5612	   4.561	  27.295
  546	  0.0732	  4.5700	   4.570	  27.345
  547	  0.0728	  4.5775	   4.577	  27.395
  548	  0.0732	  4.5862	   4.586	  27.445
  549	  0.0740	  4.5950	   4.595	  27.495
  550	  0.0736	  4.6025	   4.602	  27.545
  551	  0.0740	  4.6112	   4.611	  27.595
  552	  0.0744	  4.6200	   4.620	  27.645
  553	  0.0744	  4.6275	   4.628	  27.695
  554	  0.0744	  4.6363	   4.636	  27.745
  555	  0.0752	  4.6450	   4.645	  27.795
  556	  0.0748	  4.6525	   4.652	  27.845
  557	  0.0748	  4.6613	   4.661	  27.895
  558	  0.0752	  4.6700	   4.670	  27.945
  559	  0.0752	  4.6775	   4.677	  27.995
  560	  0.0748	  4.6862	   4.686	  28.045
  561	  0.0752	  4.6950	   4.695	  28.095
  562	  0.0756	  4.7025	   4.702	  28.145
  563	  0.0760	  4.7112	   4.711	  28.195
  564	  0.0760	  4.7200	   4.720	  28.245
  565	  0.0760	  4.7275	   4.727	  28.295
  566	  0.0760	  4.7362	   4.736	  28.345
  567	  0.0764	  4.7438	   4.744	  28.395
  568	  0.0768	  4.7525	   4.753	  28.445
  569	  0.0768	  4.7613	   4.761	  28.495
  570	  0.0768	  4.7700	   4.770	  28.545
  571	  0.0768	  4.7775	   4.777	  28.595
  572	  0.0768	  4.7863	   4.786	  28.645
  573	  0.0772	  4.7950	   4.795	  28.695
  574	  0.0772	  4.8025	   4.802	  28.745
  575	  0.0776	  4.8112	   4.811	  28.795
  576	  0.0776	  4.8200	   4.820	  28.845
  577	  0.0788	  4.8275	   4.827	  28.895
  578	  0.0796	  4.8362	   4.836	  28.945
  579	  0.0792	  4.8450	   4.845	  28.995
  580	  0.0788	  4.8525	   4.852	  29.045
  581	  0.0796	  4.8612	   4.861	  29.095
  582	  0.0796	  4.8688	   4.869	  29.145
  583	  0.0796	  4.8775	   4.878	  29.195
  584	  0.0796	  4.8863	   4.886	  29.245
  585	  0.0788	  4.8950	   4.895	  29.295
  586	  0.0792	  4.9025	   4.902	  29.345
  587	  0.0792	  4.9113	   4.911	  29.395
  588	  0.0800	  4.9200	   4.920	  29.445
  589	  0.0796	  4.9275	   4.927	  29.495
  590	  0.0804	  4.9362	   4.936	  29.545
  591	  0.0804	  4.9450	   4.945	  29.595
  592	  0.0808	  4.9525	   4.952	  29.645
  593	  0.0808	  4.9612	   4.961	  29.695
  594	  0.0800	  4.9700	   4.970	  29.745
  595	  0.0804	  4.9775	   4.977	  29.795
  596	  0.0808	  4.9862	   4.986	  29.845
  597	  0.0804	  4.9938	   4.994	  29.895
  598	  0.0812	  5.0025	   5.003	  29.945
  599	  0.0808	  5.0113	   5.011	  29.995
  600	  0.0812	  5.0200	   5.020	  30.045
  601	  0.0820	  5.0275	   5.027	  30.095
  602	  0.0820	  5.0363	   5.036	  30.145
  603	  0.0824	  5.0450	   5.045	  30.195
  604	  0.0828	  5.0525	   5.052	  30.245
  605	  0.0824	  5.0612	   5.061	  30.295
  606	  0.0820	  5.0687	   5.069	  30.345
  607	  0.0828	  5.0775	   5.077	  30.395
  608	  0.0828	  5.0862	   5.086	  30.445
  609	  0.0832	  5.0950	   5.095	  30.495
  610	  0.0828	  5.1025	   5.102	  30.545
  611	  0.0828	  5.1112	   5.111	  30.595
  612	  0.0836	  5.1200	   5.120	  30.645
  613	  0.0832	  5.1275	   5.128	  30.695
  614	  0.0836	  5.1363	   5.136	  30.745
  615	  0.0844	  5.1450	   5.145	  30.795
  616	  0.0844	  5.1525	   5.152	  30.845
  617	  0.0844	  5.1613	   5.161	  30.895
  618	  0.0848	  5.1700	   5.170	  30.945
  619	  0.0852	  5.1775	   5.177	  30.995
  620	  0.0848	  5.1862	   5.186	  31.045
  621	  0.0852	  5.1950	   5.195	  31.095
  622	  0.0848	  5.2037	   5.204	  31.145
  623	  0.0852	  5.2112	   5.211	  31.195
  624	  0.0856	  5.2200	   5.220	  31.245
  625	  0.0856	  5.2287	   5.229	  31.295
  626	  0.0860	  5.2362	   5.236	  31.345
  627	  0.0852	  5.2450	   5.245	  31.395
  628	  0.0864	  5.2537	   5.254	  31.445
  629	  0.0864	  5.2613	   5.261	  31.495
  630	  0.0860	  5.2700	   5.270	  31.545
  631	  0.0860	  5.2775	   5.277	  31.595
  632	  0.0864	  5.2863	   5.286	  31.645
  633	  0.0864	  5.2950	   5.295	  31.695
  634	  0.0868	  5.3038	   5.304	  31.745
  635	  0.0876	  5.3112	   5.311	  31.795
  636	  0.0864	  5.3200	   5.320	  31.845
  637	  0.0872	  5.3287	   5.329	  31.895
  638	  0.0876	  5.3375	   5.338	  31.945
  639	  0.0876	  5.3450	   5.345	  31.995
  640	  0.0872	  5.3537	   5.354	  32.045
  641	  0.0880	  5.3625	   5.362	  32.095
  642	  0.0880	  5.3700	   5.370	  32.145
  643	  0.0880	  5.3787	   5.379	  32.195
  644	  0.0884	  5.3875	   5.387	  32.245
  645	  0.0888	  5.3950	   5.395	  32.295
  646	  0.0896	  5.4037	   5.404	  32.345
  647	  0.0896	  5.4125	   5.412	  32.395
  648	  0.0888	  5.4200	   5.420	  32.445
  649	  0.0892	  5.4288	   5.429	  32.495
  650	  0.0904	  5.4375	   5.438	  32.545
  651	  0.0904	  5.4450	   5.445	  32.595
  652	  0.0896	  5.4537	   5.454	  32.645
  653	  0.0896	  5.4625	   5.463	  32.695
  654	  0.0900	  5.4713	   5.471	  32.745
  655	  0.0904	  5.4787	   5.479	  32.795
  656	  0.0904	  5.4875	   5.487	  32.845
  657	  0.0904	  5.4962	   5.496	  32.895
  658	  0.0908	  5.5037	   5.504	  32.945
  659	  0.0908	  5.5125	   5.512	  32.995
  660	  0.0908	  5.5212	   5.521	  33.045
  661	  0.0908	  5.5287	   5.529	  33.095
  662	  0.0912	  5.5375	   5.537	  33.145
  663	  0.0912	  5.5462	   5.546	  33.195
  664	  0.0916	  5.5538	   5.554	  33.245
  665	  0.0920	  5.5625	   5.562	  33.295
  666	  0.0924	  5.5712	   5.571	  33.345
  667	  0.0920	  5.5787	   5.579	  33.395
  668	  0.0924	  5.5875	   5.588	  33.445
  669	  0.0920	  5.5963	   5.596	  33.495
  670	  0.0928	  5.6050	   5.605	  33.545
  671	  0.0924	  5.6125	   5.612	  33.595
  672	  0.0932	  5.6212	   5.621	  33.645
  673	  0.0936	  5.6300	   5.630	  33.695
  674	  0.0940	  5.6388	   5.639	  33.745
  675	  0.0940	  5.6462	   5.646	  33.795
  676	  0.0936	  5.6550	   5.655	  33.845
  677	  0.0940	  5.6625	   5.662	  33.895
  678	  0.0940	  5.6712	   5.671	  33.945
  679	  0.0944	  5.6800	   5.680	  33.995
  680	  0.0944	  5.6887	   5.689	  34.045
  681	  0.0936	  5.6962	   5.696	  34.095
  682	  0.0940	  5.7050	   5.705	  34.145
  683	  0.0944	  5.7137	   5.714	  34.195
  684	  0.0952	  5.7213	   5.721	  34.245
  685	  0.0944	  5.7300	   5.730	  34.295
  686	  0.0940	  5.7387	   5.739	  34.345
  687	  0.0944	  5.7462	   5.746	  34.395
  688	  0.0952	  5.7550	   5.755	  34.445
  689	  0.0948	  5.7638	   5.764	  34.495
  690	  0.0956	  5.7712	   5.771	  34.545
  691	  0.0952	  5.7800	   5.780	  34.595
  692	  0.0952	  5.7887	   5.789	  34.645
  693	  0.0952	  5.7962	   5.796	  34.695
  694	  0.0952	  5.8050	   5.805	  34.745
  695	  0.0960	  5.8137	   5.814	  34.795
  696	  0.0960	  5.8225	   5.822	  34.845
  697	  0.0964	  5.8300	   5.830	  34.895
  698	  0.0960	  5.8387	   5.839	  34.945
  699	  0.0960	  5.8475	   5.847	  34.995
  700	  0.0964	  5.8550	   5.855	  35.045
  701	  0.0972	  5.8637	   5.864	  35.095
  702	  0.0980	  5.8725	   5.872	  35.145
  703	  0.0976	  5.8812	   5.881	  35.195
  704	  0.0972	  5.8888	   5.889	  35.245
  705	  0.0976	  5.8975	   5.898	  35.295
  706	  0.0976	  5.9062	   5.906	  35.345
  707	  0.0984	  5.9137	   5.914	  35.395
  708	  0.0988	  5.9225	   5.922	  35.445
  709	  0.0988	  5.9313	   5.931	  35.495
  710	  0.0992	  5.9387	   5.939	  35.545
  711	  0.0980	  5.9475	   5.947	  35.595
  712	  0.0984	  5.9562	   5.956	  35.645
  713	  0.0984	  5.9637	   5.964	  35.695
  714	  0.0992	  5.9725	   5.972	  35.745
  715	  0.0992	  5.9812	   5.981	  35.795
  716	  0.0996	  5.9887	   5.989	  35.845
  717	  0.0996	  5.9975	   5.997	  35.895
  718	  0.0996	  6.0062	   6.006	  35.945
  719	  0.0996	  6.0138	   6.014	  35.995
  720	  0.1004	  6.0225	   6.023	  36.045
  721	  0.1000	  6.0312	   6.031	  36.095
  722	  0.1004	  6.0387	   6.039	  36.145
  723	  0.1004	  6.0475	   6.047	  36.195
  724	  0.1000	  6.0563	   6.056	  36.245
  725	  0.1000	  6.0650	   6.065	  36.295
  726	  0.1000	  6.0725	   6.072	  36.345
  727	  0.1008	  6.0812	   6.081	  36.395
  728	  0.1008	  6.0900	   6.090	  36.445
  729	  0.1004	  6.0975	   6.097	  36.495
  730	  0.1012	  6.1062	   6.106	  36.545
  731	  0.1008	  6.1150	   6.115	  36.595
  732	  0.1016	  6.1225	   6.122	  36.645
  733	  0.1016	  6.1312	   6.131	  36.695
  734	  0.1020	  6.1400	   6.140	  36.745
  735	  0.1024	  6.1487	   6.149	  36.795
  736	  0.1016	  6.1562	   6.156	  36.845
  737	  0.1020	  6.1650	   6.165	  36.895
  738	  0.1020	  6.1737	   6.174	  36.945
  739	  0.1020	  6.1825	   6.182	  36.995
  740	  0.1020	  6.1900	   6.190	  37.045
  741	  0.1020	  6.1988	   6.199	  37.095
  742	  0.1024	  6.2062	   6.206	  37.145
  743	  0.1024	  6.2150	   6.215	  37.195
  744	  0.1028	  6.2237	   6.224	  37.245
  745	  0.1028	  6.2325	   6.233	  37.295
  746	  0.1028	  6.2400	   6.240	  37.345
  747	  0.1028	  6.2487	   6.249	  37.395
  748	  0.1032	  6.2575	   6.257	  37.445
  749	  0.1036	  6.2650	   6.265	  37.495
  750	  0.1036	  6.2737	   6.274	  37.545
  751	  0.1032	  6.2825	   6.282	  37.595
  752	  0.1036	  6.2900	   6.290	  37.645
  753	  0.1044	  6.2987	   6.299	  37.695
  754	  0.1044	  6.3075	   6.307	  37.745
  755	  0.1044	  6.3162	   6.316	  37.795
  756	  0.1040	  6.3238	   6.324	  37.845
  757	  0.1052	  6.3325	   6.332	  37.895
  758	  0.1052	  6.3412	   6.341	  37.945
  759	  0.1052	  6.3500	   6.350	  37.995
  760	  0.1056	  6.3575	   6.358	  38.045
  761	  0.1056	  6.3663	   6.366	  38.095
  762	  0.1056	  6.3750	   6.375	  38.145
  763	  0.1056	  6.3825	   6.382	  38.195
  764	  0.1064	  6.3912	   6.391	  38.245
  765	  0.1068	  6.4000	   6.400	  38.295
  766	  0.1060	  6.4088	   6.409	  38.345
  767	  0.1064	  6.4162	   6.416	  38.395
  768	  0.1068	  6.4250	   6.425	  38.445
  769	  0.1068	  6.4337	   6.434	  38.495
  770	  0.1072	  6.4425	   6.442	  38.545
  771	  0.1072	  6.4500	   6.450	  38.595
  772	  0.1072	  6.4587	   6.459	  38.645
  773	  0.1076	  6.4675	   6.467	  38.695
  774	  0.1068	  6.4750	   6.475	  38.745
  775	  0.1072	  6.4837	   6.484	  38.795
  776	  0.1076	  6.4925	   6.492	  38.845
  777	  0.1076	  6.5000	   6.500	  38.895
  778	  0.1084	  6.5087	   6.509	  38.945
  779	  0.1088	  6.5175	   6.517	  38.995
  780	  0.1088	  6.5250	   6.525	  39.045
  781	  0.1088	  6.5338	   6.534	  39.095
  782	  0.1092	  6.5425	   6.543	  39.145
  783	  0.1088	  6.5512	   6.551	  39.195
  784	  0.1088	  6.5587	   6.559	  39.245
  785	  0.1096	  6.5675	   6.567	  39.295
  786	  0.1096	  6.5763	   6.576	  39.345
  787	  0.1096	  6.5837	   6.584	  39.395
  788	  0.1096	  6.5925	   6.592	  39.445
  789	  0.1104	  6.6012	   6.601	  39.495
  790	  0.1104	  6.6100	   6.610	  39.545
  791	  0.1104	  6.6175	   6.617	  39.595
  792	  0.1108	  6.6262	   6.626	  39.645
  793	  0.1112	  6.6350	   6.635	  39.695
  794	  0.1108	  6.6425	   6.642	  39.745
  795	  0.1112	  6.6512	   6.651	  39.795
  796	  0.1112	  6.6600	   6.660	  39.845
  797	  0.1112	  6.6675	   6.668	  39.895
  798	  0.1116	  6.6762	   6.676	  39.945
  799	  0.1116	  6.6850	   6.685	  39.995
  800	  0.1120	  6.6937	   6.694	  40.045
  801	  0.1112	  6.7013	   6.701	  40.095
  802	  0.1116	  6.7100	   6.710	  40.145
  803	  0.1116	  6.7188	   6.719	  40.195
  804	  0.1120	  6.7262	   6.726	  40.245
  805	  0.1112	  6.7350	   6.735	  40.295
  806	  0.1124	  6.7437	   6.744	  40.345
  807	  0.1128	  6.7525	   6.753	  40.395
  808	  0.1124	  6.7600	   6.760	  40.445
  809	  0.1124	  6.7687	   6.769	  40.495
  810	  0.1128	  6.7775	   6.777	  40.545
  811	  0.1128	  6.7850	   6.785	  40.595
  812	  0.1132	  6.7937	   6.794	  40.645
  813	  0.1132	  6.8025	   6.802	  40.695
  814	  0.1132	  6.8100	   6.810	  40.745
  815	  0.1136	  6.8187	   6.819	  40.795
  816	  0.1136	  6.8275	   6.827	  40.845
  817	  0.1140	  6.8350	   6.835	  40.895
  818	  0.1136	  6.8438	   6.844	  40.945
  819	  0.1152	  6.8525	   6.852	  40.995
  820	  0.1148	  6.8612	   6.861	  41.045
  821	  0.1152	  6.8687	   6.869	  41.095
  822	  0.1152	  6.8775	   6.878	  41.145
  823	  0.1148	  6.8863	   6.886	  41.195
  824	  0.1156	  6.8937	   6.894	  41.245
  825	  0.1160	  6.9025	   6.902	  41.295
  826	  0.1156	  6.9112	   6.911	  41.345
  827	  0.1156	  6.9187	   6.919	  41.395
  828	  0.1156	  6.9275	   6.927	  41.445
  829	  0.1152	  6.9362	   6.936	  41.495
  830	  0.1160	  6.9450	   6.945	  41.545
  831	  0.1160	  6.9525	   6.952	  41.595
  832	  0.1160	  6.9612	   6.961	  41.645
  833	  0.1164	  6.9700	   6.970	  41.695
  834	  0.1168	  6.9775	   6.977	  41.745
  835	  0.1168	  6.9862	   6.986	  41.795
  836	  0.1168	  6.9950	   6.995	  41.845
  837	  0.1168	  7.0025	   7.003	  41.895
  838	  0.1168	  7.0113	   7.011	  41.945
  839	  0.1168	  7.0200	   7.020	  41.995
  840	  0.1164	  7.0275	   7.027	  42.045
  841	  0.1164	  7.0362	   7.036	  42.095
  842	  0.1164	  7.0450	   7.045	  42.145
  843	  0.1172	  7.0525	   7.052	  42.195
  844	  0.1172	  7.0612	   7.061	  42.245
  845	  0.1176	  7.0700	   7.070	  42.295
  846	  0.1172	  7.0775	   7.077	  42.345
  847	  0.1176	  7.0862	   7.086	  42.395
  848	  0.1176	  7.0950	   7.095	  42.445
  849	  0.1176	  7.1037	   7.104	  42.495
  850	  0.1180	  7.1112	   7.111	  42.545
  851	  0.1172	  7.1200	   7.120	  42.595
  852	  0.1180	  7.1287	   7.129	  42.645
  853	  0.1180	  7.1363	   7.136	  42.695
  854	  0.1184	  7.1450	   7.145	  42.745
  855	  0.1180	  7.1537	   7.154	  42.795
  856	  0.1184	  7.1612	   7.161	  42.845
  857	  0.1184	  7.1700	   7.170	  42.895
  858	  0.1188	  7.1788	   7.179	  42.945
  859	  0.1192	  7.1862	   7.186	  42.995
  860	  0.1188	  7.1950	   7.195	  43.045
  861	  0.1192	  7.2037	   7.204	  43.095
  862	  0.1196	  7.2112	   7.211	  43.145
  863	  0.1188	  7.2200	   7.220	  43.195
  864	  0.1192	  7.2287	   7.229	  43.245
  865	  0.1196	  7.2362	   7.236	  43.295
  866	  0.1192	  7.2450	   7.245	  43.345
  867	  0.1196	  7.2537	   7.254	  43.395
  868	  0.1192	  7.2625	   7.262	  43.445
  869	  0.1196	  7.2700	   7.270	  43.495
  870	  0.1200	  7.2787	   7.279	  43.545
  871	  0.1192	  7.2875	   7.287	  43.595
  872	  0.1200	  7.2950	   7.295	  43.645
  873	  0.1200	  7.3038	   7.304	  43.695
  874	  0.1208	  7.3125	   7.312	  43.745
  875	  0.1212	  7.3200	   7.320	  43.795
  876	  0.1212	  7.3287	   7.329	  43.845
  877	  0.1208	  7.3375	   7.337	  43.895
  878	  0.1208	  7.3450	   7.345	  43.945
  879	  0.1212	  7.3537	   7.354	  43.995
  880	  0.1216	  7.3625	   7.362	  44.045
  881	  0.1212	  7.3700	   7.370	  44.095
  882	  0.1212	  7.3787	   7.379	  44.145
  883	  0.1204	  7.3875	   7.387	  44.195
  884	  0.1208	  7.3962	   7.396	  44.245
  885	  0.1216	  7.4037	   7.404	  44.295
  886	  0.1220	  7.4125	   7.412	  44.345
  887	  0.1220	  7.4212	   7.421	  44.395
  888	  0.1216	  7.4300	   7.430	  44.445
  889	  0.1220	  7.4375	   7.438	  44.495
  890	  0.1220	  7.4462	   7.446	  44.545
  891	  0.1220	  7.4550	   7.455	  44.595
  892	  0.1228	  7.4625	   7.462	  44.645
  893	  0.1228	  7.4713	   7.471	  44.695
  894	  0.1232	  7.4800	   7.480	  44.745
  895	  0.1228	  7.4875	   7.487	  44.795
  896	  0.1236	  7.4962	   7.496	  44.845
  897	  0.1232	  7.5050	   7.505	  44.895
  898	  0.1232	  7.5125	   7.512	  44.945
  899	  0.1232	  7.5212	   7.521	  44.995
  900	  0.1236	  7.5300	   7.530	  45.045
  901	  0.1240	  7.5375	   7.537	  45.095
  902	  0.1244	  7.5462	   7.546	  45.145
  903	  0.1236	  7.5550	   7.555	  45.195
  904	  0.1236	  7.5625	   7.562	  45.245
  905	  0.1232	  7.5712	   7.571	  45.295
  906	  0.1236	  7.5800	   7.580	  45.345
  907	  0.1236	  7.5875	   7.587	  45.395
  908	  0.1236	  7.5963	   7.596	  45.445
  909	  0.1236	  7.6050	   7.605	  45.495
  910	  0.1236	  7.6125	   7.612	  45.545
  911	  0.1248	  7.6212	   7.621	  45.595
  912	  0.1252	  7.6300	   7.630	  45.645
  913	  0.1252	  7.6387	   7.639	  45.695
  914	  0.1244	  7.6462	   7.646	  45.745
  915	  0.1248	  7.6550	   7.655	  45.795
  916	  0.1252	  7.6637	   7.664	  45.845
  917	  0.1252	  7.6712	   7.671	  45.895
  918	  0.1252	  7.6800	   7.680	  45.945
  919	  0.1256	  7.6887	   7.689	  45.995
  920	  0.1260	  7.6975	   7.697	  46.045
  921	  0.1256	  7.7050	   7.705	  46.095
  922	  0.1256	  7.7137	   7.714	  46.145
  923	  0.1252	  7.7225	   7.722	  46.195
  924	  0.1252	  7.7300	   7.730	  46.245
  925	  0.1256	  7.7387	   7.739	  46.295
  926	  0.1260	  7.7475	   7.747	  46.345
  927	  0.1268	  7.7550	   7.755	  46.395
  928	  0.1256	  7.7637	   7.764	  46.445
  929	  0.1260	  7.7725	   7.773	  46.495
  930	  0.1256	  7.7812	   7.781	  46.545
  931	  0.1260	  7.7887	   7.789	  46.595
  932	  0.1256	  7.7975	   7.797	  46.645
  933	  0.1264	  7.8062	   7.806	  46.695
  934	  0.1268	  7.8137	   7.814	  46.745
  935	  0.1264	  7.8225	   7.822	  46.795
  936	  0.1268	  7.8312	   7.831	  46.845
  937	  0.1268	  7.8387	   7.839	  46.895
  938	  0.1268	  7.8475	   7.847	  46.945
  939	  0.1276	  7.8562	   7.856	  46.995
  940	  0.1276	  7.8637	   7.864	  47.045
  941	  0.1276	  7.8725	   7.872	  47.095
  942	  0.1272	  7.8812	   7.881	  47.145
  943	  0.1276	  7.8887	   7.889	  47.195
  944	  0.1280	  7.8975	   7.898	  47.245
  945	  0.1280	  7.9062	   7.906	  47.295
  946	  0.1276	  7.9137	   7.914	  47.345
  947	  0.1280	  7.9225	   7.922	  47.395
  948	  0.1284	  7.9312	   7.931	  47.445
  949	  0.1280	  7.9387	   7.939	  47.495
  950	  0.1280	  7.9475	   7.947	  47.545
  951	  0.1280	  7.9562	   7.956	  47.595
  952	  0.1284	  7.9637	   7.964	  47.645
  953	  0.1284	  7.9725	   7.972	  47.695
  954	  0.1276	  7.9812	   7.981	  47.745
  955	  0.1280	  7.9900	   7.990	  47.795
  956	  0.1284	  7.9975	   7.997	  47.845
  957	  0.1284	  8.0062	   8.006	  47.895
  958	  0.1288	  8.0150	   8.015	  47.945
  959	  0.1288	  8.0225	   8.023	  47.995
  960	  0.1284	  8.0312	   8.031	  48.045
  961	  0.1292	  8.0400	   8.040	  48.095
  962	  0.1296	  8.0475	   8.047	  48.145
  963	  0.1300	  8.0562	   8.056	  48.195
  964	  0.1304	  8.0650	   8.065	  48.245
  965	  0.1296	  8.0725	   8.073	  48.295
  966	  0.1300	  8.0813	   8.081	  48.345
  967	  0.1300	  8.0887	   8.089	  48.395
  968	  0.1300	  8.0975	   8.097	  48.445
  969	  0.1308	  8.1062	   8.106	  48.495
  970	  0.1308	  8.1150	   8.115	  48.545
  971	  0.1304	  8.1225	   8.122	  48.595
  972	  0.1304	  8.1312	   8.131	  48.645
  973	  0.1304	  8.1400	   8.140	  48.695
  974	  0.1308	  8.1475	   8.148	  48.745
  975	  0.1308	  8.1562	   8.156	  48.795
  976	  0.1308	  8.1650	   8.165	  48.845
  977	  0.1312	  8.1725	   8.172	  48.895
  978	  0.1312	  8.1812	   8.181	  48.945
  979	  0.1312	  8.1900	   8.190	  48.995
  980	  0.1316	  8.1975	   8.198	  49.045
  981	  0.1316	  8.2063	   8.206	  49.095
  982	  0.1320	  8.2150	   8.215	  49.145
  983	  0.1316	  8.2238	   8.224	  49.195
  984	  0.1312	  8.2312	   8.231	  49.245
  985	  0.1320	  8.2400	   8.240	  49.295
  986	  0.1320	  8.2487	   8.249	  49.345
  987	  0.1320	  8.2562	   8.256	  49.395
  988	  0.1324	  8.2650	   8.265	  49.445
  989	  0.1328	  8.2737	   8.274	  49.495
  990	  0.1328	  8.2825	   8.283	  49.545
  991	  0.1328	  8.2900	   8.290	  49.595
  992	  0.1328	  8.2987	   8.299	  49.645
  993	  0.1328	  8.3062	   8.306	  49.695
  994	  0.1328	  8.3150	   8.315	  49.745
  995	  0.1336	  8.3237	   8.324	  49.795
  996	  0.1336	  8.3313	   8.331	  49.845
  997	  0.1336	  8.3400	   8.340	  49.895
  998	  0.1336	  8.3488	   8.349	  49.945
  999	  0.1336	  8.3562	   8.356	  49.995
 1000	  0.1340	  8.3650	   8.365	  50.045
 1001	  0.1336	  8.3737	   8.374	  50.095
 1002	  0.1336	  8.3812	   8.381	  50.145
 1003	  0.1348	  8.3900	   8.390	  50.195
 1004	  0.1340	  8.3987	   8.399	  50.245
 1005	  0.1344	  8.4062	   8.406	  50.295
 1006	  0.1348	  8.4150	   8.415	  50.345
 1007	  0.1344	  8.4237	   8.424	  50.395
 1008	  0.1348	  8.4325	   8.432	  50.445
 1009	  0.1348	  8.4400	   8.440	  50.495
 1010	  0.1352	  8.4487	   8.449	  50.545
 1011	  0.1352	  8.4563	   8.456	  50.595
 1012	  0.1352	  8.4650	   8.465	  50.645
 1013	  0.1356	  8.4738	   8.474	  50.695
 1014	  0.1360	  8.4825	   8.483	  50.745
 1015	  0.1360	  8.4900	   8.490	  50.795
 1016	  0.1356	  8.4987	   8.499	  50.845
 1017	  0.1356	  8.5075	   8.507	  50.895
 1018	  0.1360	  8.5162	   8.516	  50.945
 1019	  0.1360	  8.5237	   8.524	  50.995
 1020	  0.1364	  8.5325	   8.533	  51.045
 1021	  0.1360	  8.5413	   8.541	  51.095
 1022	  0.1360	  8.5487	   8.549	  51.145
 1023	  0.1368	  8.5575	   8.557	  51.195
 1024	  0.1368	  8.5662	   8.566	  51.245
 1025	  0.1364	  8.5737	   8.574	  51.295
 1026	  0.1368	  8.5825	   8.582	  51.345
 1027	  0.1372	  8.5900	   8.590	  51.395
 1028	  0.1372	  8.5988	   8.599	  51.445
 1029	  0.1376	  8.6075	   8.608	  51.495
 1030	  0.1376	  8.6150	   8.615	  51.545
 1031	  0.1372	  8.6237	   8.624	  51.595
 1032	  0.1372	  8.6325	   8.632	  51.645
 1033	  0.1380	  8.6412	   8.641	  51.695
 1034	  0.1376	  8.6487	   8.649	  51.745
 1035	  0.1376	  8.6575	   8.658	  51.795
 1036	  0.1372	  8.6663	   8.666	  51.845
 1037	  0.1372	  8.6737	   8.674	  51.895
 1038	  0.1368	  8.6825	   8.682	  51.945
 1039	  0.1372	  8.6912	   8.691	  51.995
 1040	  0.1372	  8.7000	   8.700	  52.045
 1041	  0.1380	  8.7075	   8.707	  52.095
 1042	  0.1384	  8.7162	   8.716	  52.145
 1043	  0.1388	  8.7250	   8.725	  52.195
 1044	  0.1380	  8.7325	   8.733	  52.245
 1045	  0.1380	  8.7413	   8.741	  52.295
 1046	  0.1388	  8.7487	   8.749	  52.345
 1047	  0.1392	  8.7575	   8.757	  52.395
 1048	  0.1380	  8.7662	   8.766	  52.445
 1049	  0.1376	  8.7750	   8.775	  52.495
 1050	  0.1380	  8.7825	   8.783	  52.545
 1051	  0.1384	  8.7913	   8.791	  52.595
 1052	  0.1388	  8.8000	   8.800	  52.645
 1053	  0.1388	  8.8075	   8.807	  52.695
 1054	  0.1392	  8.8162	   8.816	  52.745
 1055	  0.1392	  8.8250	   8.825	  52.795
 1056	  0.1396	  8.8325	   8.832	  52.845
 1057	  0.1392	  8.8412	   8.841	  52.895
 1058	  0.1396	  8.8500	   8.850	  52.945
 1059	  0.1392	  8.8575	   8.858	  52.995
 1060	  0.1400	  8.8663	   8.866	  53.045
 1061	  0.1392	  8.8750	   8.875	  53.095
 1062	  0.1396	  8.8825	   8.882	  53.145
 1063	  0.1404	  8.8912	   8.891	  53.195
 1064	  0.1408	  8.9000	   8.900	  53.245
 1065	  0.1404	  8.9075	   8.908	  53.295
 1066	  0.1408	  8.9163	   8.916	  53.345
 1067	  0.1404	  8.9250	   8.925	  53.395
 1068	  0.1408	  8.9325	   8.932	  53.445
 1069	  0.1404	  8.9412	   8.941	  53.495
 1070	  0.1408	  8.9500	   8.950	  53.545
 1071	  0.1408	  8.9587	   8.959	  53.595
 1072	  0.1408	  8.9662	   8.966	  53.645
 1073	  0.1416	  8.9750	   8.975	  53.695
 1074	  0.1420	  8.9837	   8.984	  53.745
 1075	  0.1416	  8.9913	   8.991	  53.795
 1076	  0.1420	  9.0000	   9.000	  53.845
 1077	  0.1420	  9.0087	   9.009	  53.895
 1078	  0.1420	  9.0162	   9.016	  53.945
 1079	  0.1424	  9.0250	   9.025	  53.995
 1080	  0.1424	  9.0337	   9.034	  54.045
 1081	  0.1424	  9.0413	   9.041	  54.095
 1082	  0.1424	  9.0500	   9.050	  54.145
 1083	  0.1424	  9.0588	   9.059	  54.195
 1084	  0.1424	  9.0662	   9.066	  54.245
 1085	  0.1428	  9.0750	   9.075	  54.295
 1086	  0.1420	  9.0837	   9.084	  54.345
 1087	  0.1420	  9.0925	   9.092	  54.395
 1088	  0.1416	  9.1000	   9.100	  54.445
 1089	  0.1424	  9.1087	   9.109	  54.495
 1090	  0.1424	  9.1175	   9.117	  54.545
 1091	  0.1424	  9.1250	   9.125	  54.595
 1092	  0.1420	  9.1337	   9.134	  54.645
 1093	  0.1432	  9.1425	   9.142	  54.695
 1094	  0.1424	  9.1500	   9.150	  54.745
 1095	  0.1424	  9.1587	   9.159	  54.795
 1096	  0.1428	  9.1663	   9.166	  54.845
 1097	  0.1432	  9.1750	   9.175	  54.895
 1098	  0.1432	  9.1838	   9.184	  54.945
 1099	  0.1436	  9.1925	   9.193	  54.995
 1100	  0.1436	  9.2000	   9.200	  55.045
 1101	  0.1432	  9.2087	   9.209	  55.095
 1102	  0.1432	  9.2175	   9.217	  55.145
 1103	  0.1432	  9.2262	   9.226	  55.195
 1104	  0.1436	  9.2337	   9.234	  55.245
 1105	  0.1436	  9.2425	   9.242	  55.295
 1106	  0.1440	  9.2500	   9.250	  55.345
 1107	  0.1440	  9.2587	   9.259	  55.395
 1108	  0.1440	  9.2675	   9.267	  55.445
 1109	  0.1440	  9.2750	   9.275	  55.495
 1110	  0.1440	  9.2837	   9.284	  55.545
 1111	  0.1448	  9.2925	   9.292	  55.595
 1112	  0.1444	  9.3000	   9.300	  55.645
 1113	  0.1444	  9.3088	   9.309	  55.695
 1114	  0.1452	  9.3175	   9.318	  55.745
 1115	  0.1444	  9.3250	   9.325	  55.795
 1116	  0.1448	  9.3337	   9.334	  55.845
 1117	  0.1444	  9.3425	   9.342	  55.895
 1118	  0.1440	  9.3512	   9.351	  55.945
 1119	  0.1448	  9.3587	   9.359	  55.995
 1120	  0.1452	  9.3675	   9.367	  56.045
 1121	  0.1456	  9.3763	   9.376	  56.095
 1122	  0.1448	  9.3837	   9.384	  56.145
 1123	  0.1448	  9.3925	   9.392	  56.195
 1124	  0.1452	  9.4012	   9.401	  56.245
 1125	  0.1456	  9.4087	   9.409	  56.295
 1126	  0.1452	  9.4175	   9.417	  56.345
 1127	  0.1452	  9.4262	   9.426	  56.395
 1128	  0.1460	  9.4338	   9.434	  56.445
 1129	  0.1456	  9.4425	   9.443	  56.495
 1130	  0.1456	  9.4513	   9.451	  56.545
 1131	  0.1456	  9.4587	   9.459	  56.595
 1132	  0.1460	  9.4675	   9.467	  56.645
 1133	  0.1464	  9.4762	   9.476	  56.695
 1134	  0.1460	  9.4850	   9.485	  56.745
 1135	  0.1464	  9.4925	   9.492	  56.795
 1136	  0.1464	  9.5012	   9.501	  56.845
 1137	  0.1468	  9.5100	   9.510	  56.895
 1138	  0.1472	  9.5175	   9.517	  56.945
 1139	  0.1472	  9.5262	   9.526	  56.995
 1140	  0.1472	  9.5350	   9.535	  57.045
 1141	  0.1476	  9.5425	   9.542	  57.095
 1142	  0.1472	  9.5512	   9.551	  57.145
 1143	  0.1468	  9.5600	   9.560	  57.195
 1144	  0.1464	  9.5687	   9.569	  57.245
 1145	  0.1472	  9.5763	   9.576	  57.295
 1146	  0.1464	  9.5850	   9.585	  57.345
 1147	  0.1472	  9.5925	   9.592	  57.395
 1148	  0.1472	  9.6012	   9.601	  57.445
 1149	  0.1476	  9.6100	   9.610	  57.495
 1150	  0.1476	  9.6187	   9.619	  57.545
 1151	  0.1476	  9.6262	   9.626	  57.595
 1152	  0.1476	  9.6350	   9.635	  57.645
 1153	  0.1476	  9.6438	   9.644	  57.695
 1154	  0.1480	  9.6512	   9.651	  57.745
 1155	  0.1480	  9.6600	   9.660	  57.795
 1156	  0.1472	  9.6687	   9.669	  57.845
 1157	  0.1476	  9.6762	   9.676	  57.895
 1158	  0.1476	  9.6850	   9.685	  57.945
 1159	  0.1484	  9.6937	   9.694	  57.995
 1160	  0.1480	  9.7013	   9.701	  58.045
 1161	  0.1488	  9.7100	   9.710	  58.095
 1162	  0.1488	  9.7188	   9.719	  58.145
 1163	  0.1480	  9.7262	   9.726	  58.195
 1164	  0.1476	  9.7350	   9.735	  58.245
 1165	  0.1488	  9.7437	   9.744	  58.295
 1166	  0.1484	  9.7525	   9.752	  58.345
 1167	  0.1492	  9.7600	   9.760	  58.395
 1168	  0.1488	  9.7688	   9.769	  58.445
 1169	  0.1492	  9.7775	   9.778	  58.495
 1170	  0.1496	  9.7850	   9.785	  58.545
 1171	  0.1492	  9.7937	   9.794	  58.595
 1172	  0.1492	  9.8025	   9.802	  58.645
 1173	  0.1492	  9.8112	   9.811	  58.695
 1174	  0.1496	  9.8187	   9.819	  58.745
 1175	  0.1496	  9.8275	   9.827	  58.795
 1176	  0.1500	  9.8362	   9.836	  58.845
 1177	  0.1496	  9.8438	   9.844	  58.895
 1178	  0.1504	  9.8525	   9.852	  58.945
 1179	  0.1508	  9.8612	   9.861	  58.995
 1180	  0.1504	  9.8687	   9.869	  59.045
 1181	  0.1500	  9.8775	   9.877	  59.095
 1182	  0.1496	  9.8862	   9.886	  59.145
 1183	  0.1500	  9.8938	   9.894	  59.195
 1184	  0.1500	  9.9025	   9.903	  59.245
 1185	  0.1496	  9.9113	   9.911	  59.295
 1186	  0.1504	  9.9200	   9.920	  59.345
 1187	  0.1504	  9.9275	   9.927	  59.395
 1188	  0.1508	  9.9362	   9.936	  59.445
 1189	  0.1508	  9.9450	   9.945	  59.495
 1190	  0.1508	  9.9525	   9.952	  59.545
 1191	  0.1508	  9.9612	   9.961	  59.595
 1192	  0.1512	  9.9688	   9.969	  59.645
 1193	  0.1512	  9.9775	   9.977	  59.695
 1194	  0.1508	  9.9862	   9.986	  59.745
 1195	  0.1516	  9.9950	   9.995	  59.795
 1196	  0.1512	 10.0025	  10.002	  59.845
 1197	  0.1516	 10.0112	  10.011	  59.895
 1198	  0.1516	 10.0200	  10.020	  59.945
 1199	  0.1512	 10.0275	  10.028	  59.995
 1200	  0.1516	 10.0363	  10.036	  60.045
 1201	  0.1512	 10.0450	  10.045	  60.095
 1202	  0.1516	 10.0525	  10.052	  60.145
 1203	  0.1520	 10.0612	  10.061	  60.195
 1204	  0.1520	 10.0700	  10.070	  60.245
 1205	  0.1520	 10.0787	  10.079	  60.295
 1206	  0.1524	 10.0862	  10.086	  60.345
 1207	  0.1520	 10.0950	  10.095	  60.395
 1208	  0.1528	 10.1038	  10.104	  60.445
 1209	  0.1524	 10.1112	  10.111	  60.495
 1210	  0.1528	 10.1200	  10.120	  60.545
 1211	  0.1516	 10.1287	  10.129	  60.595
 1212	  0.1524	 10.1350	  10.135	  60.645
 1213	  0.1528	 10.1438	  10.144	  60.695
 1214	  0.1528	 10.1525	  10.153	  60.745
 1215	  0.1528	 10.1600	  10.160	  60.795
 1216	  0.1536	 10.1687	  10.169	  60.845
 1217	  0.1536	 10.1775	  10.177	  60.895
 1218	  0.1528	 10.1862	  10.186	  60.945
 1219	  0.1528	 10.1937	  10.194	  60.995
 1220	  0.1528	 10.2025	  10.202	  61.045
 1221	  0.1532	 10.2112	  10.211	  61.095
 1222	  0.1528	 10.2188	  10.219	  61.145
 1223	  0.1532	 10.2275	  10.227	  61.195
 1224	  0.1536	 10.2362	  10.236	  61.245
 1225	  0.1528	 10.2437	  10.244	  61.295
 1226	  0.1532	 10.2525	  10.252	  61.345
 1227	  0.1536	 10.2612	  10.261	  61.395
 1228	  0.1540	 10.2700	  10.270	  61.445
 1229	  0.1540	 10.2775	  10.278	  61.495
 1230	  0.1540	 10.2863	  10.286	  61.545
 1231	  0.1540	 10.2950	  10.295	  61.595
 1232	  0.1536	 10.3025	  10.302	  61.645
 1233	  0.1544	 10.3112	  10.311	  61.695
 1234	  0.1544	 10.3200	  10.320	  61.745
 1235	  0.1544	 10.3275	  10.327	  61.795
 1236	  0.1540	 10.3362	  10.336	  61.845
 1237	  0.1540	 10.3450	  10.345	  61.895
 1238	  0.1540	 10.3538	  10.354	  61.945
 1239	  0.1548	 10.3612	  10.361	  61.995
 1240	  0.1548	 10.3700	  10.370	  62.045
 1241	  0.1548	 10.3787	  10.379	  62.095
 1242	  0.1552	 10.3862	  10.386	  62.145
 1243	  0.1552	 10.3950	  10.395	  62.195
 1244	  0.1552	 10.4037	  10.404	  62.245
 1245	  0.1556	 10.4113	  10.411	  62.295
 1246	  0.1552	 10.4200	  10.420	  62.345
 1247	  0.1556	 10.4288	  10.429	  62.395
 1248	  0.1552	 10.4362	  10.436	  62.445
 1249	  0.1552	 10.4450	  10.445	  62.495
 1250	  0.1552	 10.4537	  10.454	  62.545
 1251	  0.1544	 10.4612	  10.461	  62.595
 1252	  0.1552	 10.4700	  10.470	  62.645
 1253	  0.1556	 10.4788	  10.479	  62.695
 1254	  0.1556	 10.4875	  10.488	  62.745
 1255	  0.1560	 10.4950	  10.495	  62.795
 1256	  0.1556	 10.5037	  10.504	  62.845
 1257	  0.1560	 10.5125	  10.512	  62.895
 1258	  0.1556	 10.5212	  10.521	  62.945
 1259	  0.1560	 10.5287	  10.529	  62.995
 1260	  0.1560	 10.5375	  10.537	  63.045
 1261	  0.1556	 10.5462	  10.546	  63.095
 1262	  0.1564	 10.5538	  10.554	  63.145
 1263	  0.1556	 10.5625	  10.562	  63.195
 1264	  0.1560	 10.5712	  10.571	  63.245
 1265	  0.1560	 10.5787	  10.579	  63.295
 1266	  0.1560	 10.5875	  10.587	  63.345
 1267	  0.1568	 10.5962	  10.596	  63.395
 1268	  0.1568	 10.6050	  10.605	  63.445
 1269	  0.1568	 10.6125	  10.613	  63.495
 1270	  0.1564	 10.6213	  10.621	  63.545
 1271	  0.1560	 10.6300	  10.630	  63.595
 1272	  0.1568	 10.6375	  10.637	  63.645
 1273	  0.1568	 10.6462	  10.646	  63.695
 1274	  0.1572	 10.6550	  10.655	  63.745
 1275	  0.1572	 10.6637	  10.664	  63.795
 1276	  0.1572	 10.6712	  10.671	  63.845
 1277	  0.1568	 10.6800	  10.680	  63.895
 1278	  0.1572	 10.6887	  10.689	  63.945
 1279	  0.1572	 10.6962	  10.696	  63.995
 1280	  0.1572	 10.7050	  10.705	  64.045
 1281	  0.1564	 10.7137	  10.714	  64.095
 1282	  0.1572	 10.7212	  10.721	  64.145
 1283	  0.1568	 10.7300	  10.730	  64.195
 1284	  0.1576	 10.7387	  10.739	  64.245
 1285	  0.1576	 10.7463	  10.746	  64.295
 1286	  0.1580	 10.7550	  10.755	  64.345
 1287	  0.1572	 10.7638	  10.764	  64.395
 1288	  0.1576	 10.7725	  10.773	  64.445
 1289	  0.1576	 10.7800	  10.780	  64.495
 1290	  0.1580	 10.7887	  10.789	  64.545
 1291	  0.1572	 10.7975	  10.797	  64.595
 1292	  0.1580	 10.8050	  10.805	  64.645
 1293	  0.1580	 10.8137	  10.814	  64.695
 1294	  0.1588	 10.8225	  10.823	  64.745
 1295	  0.1584	 10.8313	  10.831	  64.795
 1296	  0.1584	 10.8387	  10.839	  64.845
 1297	  0.1584	 10.8475	  10.847	  64.895
 1298	  0.1584	 10.8562	  10.856	  64.945
 1299	  0.1580	 10.8650	  10.865	  64.995
 1300	  0.1580	 10.8725	  10.872	  65.045
 1301	  0.1588	 10.8812	  10.881	  65.095
 1302	  0.1584	 10.8888	  10.889	  65.145
 1303	  0.1588	 10.8975	  10.898	  65.195
 1304	  0.1584	 10.9062	  10.906	  65.245
 1305	  0.1592	 10.9150	  10.915	  65.295
 1306	  0.1592	 10.9225	  10.922	  65.345
 1307	  0.1588	 10.9312	  10.931	  65.395
 1308	  0.1592	 10.9400	  10.940	  65.445
 1309	  0.1596	 10.9475	  10.948	  65.495
 1310	  0.1600	 10.9563	  10.956	  65.545
 1311	  0.1592	 10.9650	  10.965	  65.595
 1312	  0.1596	 10.9725	  10.972	  65.645
 1313	  0.1600	 10.9812	  10.981	  65.695
 1314	  0.1600	 10.9900	  10.990	  65.745
 1315	  0.1600	 10.9975	  10.997	  65.795
 1316	  0.1604	 11.0062	  11.006	  65.845
 1317	  0.1596	 11.0150	  11.015	  65.895
 1318	  0.1596	 11.0237	  11.024	  65.945
 1319	  0.1604	 11.0312	  11.031	  65.995
 1320	  0.1604	 11.0400	  11.040	  66.045
 1321	  0.1608	 11.0487	  11.049	  66.095
 1322	  0.1604	 11.0562	  11.056	  66.145
 1323	  0.1612	 11.0650	  11.065	  66.195
 1324	  0.1612	 11.0737	  11.074	  66.245
 1325	  0.1608	 11.0813	  11.081	  66.295
 1326	  0.1608	 11.0900	  11.090	  66.345
 1327	  0.1608	 11.0988	  11.099	  66.395
 1328	  0.1612	 11.1075	  11.108	  66.445
 1329	  0.1612	 11.1150	  11.115	  66.495
 1330	  0.1612	 11.1237	  11.124	  66.545
 1331	  0.1608	 11.1325	  11.132	  66.595
 1332	  0.1604	 11.1412	  11.141	  66.645
 1333	  0.1604	 11.1487	  11.149	  66.695
 1334	  0.1604	 11.1575	  11.157	  66.745
 1335	  0.1608	 11.1662	  11.166	  66.795
 1336	  0.1604	 11.1737	  11.174	  66.845
 1337	  0.1612	 11.1825	  11.182	  66.895
 1338	  0.1608	 11.1912	  11.191	  66.945
 1339	  0.1612	 11.2000	  11.200	  66.995
 1340	  0.1616	 11.2075	  11.207	  67.045
 1341	  0.1616	 11.2162	  11.216	  67.095
 1342	  0.1620	 11.2238	  11.224	  67.145
 1343	  0.1620	 11.2325	  11.233	  67.195
 1344	  0.1616	 11.2413	  11.241	  67.245
 1345	  0.1620	 11.2487	  11.249	  67.295
 1346	  0.1620	 11.2575	  11.257	  67.345
 1347	  0.1612	 11.2662	  11.266	  67.395
 1348	  0.1616	 11.2737	  11.274	  67.445
 1349	  0.1620	 11.2825	  11.282	  67.495
 1350	  0.1620	 11.2912	  11.291	  67.545
 1351	  0.1624	 11.2987	  11.299	  67.595
 1352	  0.1624	 11.3075	  11.307	  67.645
 1353	  0.1620	 11.3162	  11.316	  67.695
 1354	  0.1628	 11.3250	  11.325	  67.745
 1355	  0.1628	 11.3325	  11.332	  67.795
 1356	  0.1624	 11.3412	  11.341	  67.845
 1357	  0.1624	 11.3500	  11.350	  67.895
 1358	  0.1628	 11.3575	  11.358	  67.945
 1359	  0.1628	 11.3663	  11.366	  67.995
 1360	  0.1624	 11.3750	  11.375	  68.045
 1361	  0.1628	 11.3825	  11.382	  68.095
 1362	  0.1632	 11.3912	  11.391	  68.145
 1363	  0.1632	 11.4000	  11.400	  68.195
 1364	  0.1628	 11.4075	  11.407	  68.245
 1365	  0.1628	 11.4162	  11.416	  68.295
 1366	  0.1624	 11.4250	  11.425	  68.345
 1367	  0.1632	 11.4325	  11.432	  68.395
 1368	  0.1628	 11.4412	  11.441	  68.445
 1369	  0.1624	 11.4500	  11.450	  68.495
 1370	  0.1624	 11.4575	  11.457	  68.545
 1371	  0.1624	 11.4662	  11.466	  68.595
 1372	  0.1628	 11.4750	  11.475	  68.645
 1373	  0.1628	 11.4837	  11.484	  68.695
 1374	  0.1628	 11.4913	  11.491	  68.745
 1375	  0.1632	 11.5000	  11.500	  68.795
 1376	  0.1628	 11.5087	  11.509	  68.845
 1377	  0.1632	 11.5162	  11.516	  68.895
 1378	  0.1636	 11.5250	  11.525	  68.945
 1379	  0.1636	 11.5337	  11.534	  68.995
 1380	  0.1632	 11.5412	  11.541	  69.045
 1381	  0.1636	 11.5500	  11.550	  69.095
 1382	  0.1640	 11.5588	  11.559	  69.145
 1383	  0.1640	 11.5675	  11.568	  69.195
 1384	  0.1636	 11.5750	  11.575	  69.245
 1385	  0.1644	 11.5837	  11.584	  69.295
 1386	  0.1640	 11.5925	  11.592	  69.345
 1387	  0.1640	 11.6000	  11.600	  69.395
 1388	  0.1636	 11.6087	  11.609	  69.445
 1389	  0.1640	 11.6175	  11.617	  69.495
 1390	  0.1640	 11.6250	  11.625	  69.545
 1391	  0.1640	 11.6337	  11.634	  69.595
 1392	  0.1640	 11.6425	  11.642	  69.645
 1393	  0.1644	 11.6512	  11.651	  69.695
 1394	  0.1644	 11.6587	  11.659	  69.745
 1395	  0.1644	 11.6675	  11.667	  69.795
 1396	  0.1644	 11.6750	  11.675	  69.845
 1397	  0.1644	 11.6838	  11.684	  69.895
 1398	  0.1644	 11.6925	  11.693	  69.945
 1399	  0.1644	 11.7013	  11.701	  69.995
 1400	  0.1648	 11.7087	  11.709	  70.045
 1401	  0.1652	 11.7175	  11.717	  70.095
 1402	  0.1652	 11.7262	  11.726	  70.145
 1403	  0.1656	 11.7337	  11.734	  70.195
 1404	  0.1660	 11.7425	  11.742	  70.245
 1405	  0.1660	 11.7512	  11.751	  70.295
 1406	  0.1652	 11.7587	  11.759	  70.345
 1407	  0.1656	 11.7675	  11.767	  70.395
 1408	  0.1656	 11.7750	  11.775	  70.445
 1409	  0.1656	 11.7837	  11.784	  70.495
 1410	  0.1656	 11.7925	  11.792	  70.545
 1411	  0.1660	 11.8000	  11.800	  70.595
 1412	  0.1660	 11.8088	  11.809	  70.645
 1413	  0.1660	 11.8175	  11.818	  70.695
 1414	  0.1668	 11.8250	  11.825	  70.745
 1415	  0.1672	 11.8337	  11.834	  70.795
 1416	  0.1664	 11.8425	  11.842	  70.845
 1417	  0.1672	 11.8512	  11.851	  70.895
 1418	  0.1660	 11.8587	  11.859	  70.945
 1419	  0.1664	 11.8675	  11.867	  70.995
 1420	  0.1664	 11.8762	  11.876	  71.045
 1421	  0.1664	 11.8837	  11.884	  71.095
 1422	  0.1664	 11.8925	  11.892	  71.145
 1423	  0.1660	 11.9012	  11.901	  71.195
 1424	  0.1668	 11.9087	  11.909	  71.245
 1425	  0.1660	 11.9175	  11.917	  71.295
 1426	  0.1664	 11.9262	  11.926	  71.345
 1427	  0.1664	 11.9338	  11.934	  71.395
 1428	  0.1660	 11.9425	  11.943	  71.445
 1429	  0.1664	 11.9513	  11.951	  71.495
 1430	  0.1664	 11.9587	  11.959	  71.545
 1431	  0.1664	 11.9675	  11.967	  71.595
 1432	  0.1668	 11.9750	  11.975	  71.645
 1433	  0.1672	 11.9837	  11.984	  71.695
 1434	  0.1668	 11.9925	  11.992	  71.745
 1435	  0.1668	 12.0012	  12.001	  71.795
 1436	  0.1668	 12.0087	  12.009	  71.845
 1437	  0.1668	 12.0175	  12.017	  71.895
 1438	  0.1668	 12.0262	  12.026	  71.945
 1439	  0.1668	 12.0337	  12.034	  71.995
 1440	  0.1660	 12.0425	  12.042	  72.045
 1441	  0.1668	 12.0512	  12.051	  72.095
 1442	  0.1680	 12.0588	  12.059	  72.145
 1443	  0.1672	 12.0675	  12.068	  72.195
 1444	  0.1668	 12.0763	  12.076	  72.245
 1445	  0.1672	 12.0837	  12.084	  72.295
 1446	  0.1672	 12.0925	  12.092	  72.345
 1447	  0.1672	 12.1012	  12.101	  72.395
 1448	  0.1668	 12.1087	  12.109	  72.445
 1449	  0.1676	 12.1175	  12.117	  72.495
 1450	  0.1668	 12.1262	  12.126	  72.545
 1451	  0.1672	 12.1337	  12.134	  72.595
 1452	  0.1680	 12.1425	  12.142	  72.645
 1453	  0.1680	 12.1512	  12.151	  72.695
 1454	  0.1684	 12.1587	  12.159	  72.745
 1455	  0.1676	 12.1675	  12.167	  72.795
 1456	  0.1676	 12.1762	  12.176	  72.845
 1457	  0.1672	 12.1838	  12.184	  72.895
 1458	  0.1676	 12.1925	  12.193	  72.945
 1459	  0.1684	 12.2013	  12.201	  72.995
 1460	  0.1680	 12.2087	  12.209	  73.045
 1461	  0.1680	 12.2175	  12.217	  73.095
 1462	  0.1680	 12.2262	  12.226	  73.145
 1463	  0.1676	 12.2337	  12.234	  73.195
 1464	  0.1684	 12.2425	  12.242	  73.245
 1465	  0.1684	 12.2512	  12.251	  73.295
 1466	  0.1680	 12.2587	  12.259	  73.345
 1467	  0.1680	 12.2675	  12.267	  73.395
 1468	  0.1692	 12.2762	  12.276	  73.445
 1469	  0.1688	 12.2850	  12.285	  73.495
 1470	  0.1684	 12.2925	  12.292	  73.545
 1471	  0.1688	 12.3012	  12.301	  73.595
 1472	  0.1692	 12.3100	  12.310	  73.645
 1473	  0.1688	 12.3175	  12.318	  73.695
 1474	  0.1692	 12.3263	  12.326	  73.745
 1475	  0.1692	 12.3350	  12.335	  73.795
 1476	  0.1692	 12.3425	  12.342	  73.845
 1477	  0.1692	 12.3512	  12.351	  73.895
 1478	  0.1692	 12.3600	  12.360	  73.945
 1479	  0.1692	 12.3675	  12.367	  73.995
 1480	  0.1688	 12.3762	  12.376	  74.045
 1481	  0.1692	 12.3850	  12.385	  74.095
 1482	  0.1696	 12.3925	  12.392	  74.145
 1483	  0.1696	 12.4012	  12.401	  74.195
 1484	  0.1704	 12.4100	  12.410	  74.245
 1485	  0.1692	 12.4187	  12.419	  74.295
 1486	  0.1700	 12.4262	  12.426	  74.345
 1487	  0.1700	 12.4350	  12.435	  74.395
 1488	  0.1696	 12.4437	  12.444	  74.445
 1489	  0.1700	 12.4513	  12.451	  74.495
 1490	  0.1700	 12.4600	  12.460	  74.545
 1491	  0.1696	 12.4688	  12.469	  74.595
 1492	  0.1696	 12.4762	  12.476	  74.645
 1493	  0.1704	 12.4850	  12.485	  74.695
 1494	  0.1700	 12.4937	  12.494	  74.745
 1495	  0.1708	 12.5012	  12.501	  74.795
 1496	  0.1708	 12.5100	  12.510	  74.845
 1497	  0.1704	 12.5188	  12.519	  74.895
 1498	  0.1708	 12.5275	  12.528	  74.945
 1499	  0.1700	 12.5350	  12.535	  74.995
 1500	  0.1708	 12.5437	  12.544	  75.045
 1501	  0.1704	 12.5525	  12.552	  75.095
 1502	  0.1704	 12.5600	  12.560	  75.145
 1503	  0.1704	 12.5687	  12.569	  75.195
 1504	  0.1704	 12.5775	  12.577	  75.245
 1505	  0.1708	 12.5850	  12.585	  75.295
 1506	  0.1708	 12.5938	  12.594	  75.345
 1507	  0.1704	 12.6025	  12.602	  75.395
 1508	  0.1712	 12.6112	  12.611	  75.445
 1509	  0.1712	 12.6187	  12.619	  75.495
 1510	  0.1708	 12.6275	  12.627	  75.545
 1511	  0.1712	 12.6362	  12.636	  75.595
 1512	  0.1716	 12.6438	  12.644	  75.645
 1513	  0.1716	 12.6525	  12.653	  75.695
 1514	  0.1716	 12.6613	  12.661	  75.745
 1515	  0.1704	 12.6687	  12.669	  75.795
 1516	  0.1716	 12.6775	  12.677	  75.845
 1517	  0.1716	 12.6862	  12.686	  75.895
 1518	  0.1716	 12.6950	  12.695	  75.945
 1519	  0.1720	 12.7025	  12.702	  75.995
 1520	  0.1712	 12.7112	  12.711	  76.045
 1521	  0.1720	 12.7200	  12.720	  76.095
 1522	  0.1712	 12.7275	  12.727	  76.145
 1523	  0.1712	 12.7362	  12.736	  76.195
 1524	  0.1708	 12.7450	  12.745	  76.245
 1525	  0.1712	 12.7525	  12.752	  76.295
 1526	  0.1712	 12.7612	  12.761	  76.345
 1527	  0.1720	 12.7700	  12.770	  76.395
 1528	  0.1716	 12.7775	  12.778	  76.445
 1529	  0.1716	 12.7863	  12.786	  76.495
 1530	  0.1720	 12.7950	  12.795	  76.545
 1531	  0.1720	 12.8025	  12.802	  76.595
 1532	  0.1720	 12.8112	  12.811	  76.645
 1533	  0.1724	 12.8200	  12.820	  76.695
 1534	  0.1724	 12.8287	  12.829	  76.745
 1535	  0.1720	 12.8362	  12.836	  76.795
 1536	  0.1724	 12.8450	  12.845	  76.845
 1537	  0.1732	 12.8537	  12.854	  76.895
 1538	  0.1728	 12.8612	  12.861	  76.945
 1539	  0.1732	 12.8700	  12.870	  76.995
 1540	  0.1728	 12.8787	  12.879	  77.045
 1541	  0.1724	 12.8862	  12.886	  77.095
 1542	  0.1732	 12.8950	  12.895	  77.145
 1543	  0.1728	 12.9037	  12.904	  77.195
 1544	  0.1736	 12.9113	  12.911	  77.245
 1545	  0.1728	 12.9200	  12.920	  77.295
 1546	  0.1724	 12.9288	  12.929	  77.345
 1547	  0.1728	 12.9362	  12.936	  77.395
 1548	  0.1732	 12.9450	  12.945	  77.445
 1549	  0.1732	 12.9537	  12.954	  77.495
 1550	  0.1728	 12.9625	  12.962	  77.545
 1551	  0.1728	 12.9700	  12.970	  77.595
 1552	  0.1736	 12.9787	  12.979	  77.645
 1553	  0.1736	 12.9875	  12.987	  77.695
 1554	  0.1736	 12.9950	  12.995	  77.745
 1555	  0.1736	 13.0037	  13.004	  77.795
 1556	  0.1732	 13.0112	  13.011	  77.845
 1557	  0.1736	 13.0200	  13.020	  77.895
 1558	  0.1736	 13.0287	  13.029	  77.945
 1559	  0.1736	 13.0363	  13.036	  77.995
 1560	  0.1744	 13.0450	  13.045	  78.045
 1561	  0.1740	 13.0538	  13.054	  78.095
 1562	  0.1736	 13.0612	  13.061	  78.145
 1563	  0.1740	 13.0700	  13.070	  78.195
 1564	  0.1732	 13.0787	  13.079	  78.245
 1565	  0.1740	 13.0862	  13.086	  78.295
 1566	  0.1736	 13.0950	  13.095	  78.345
 1567	  0.1740	 13.1037	  13.104	  78.395
 1568	  0.1736	 13.1125	  13.112	  78.445
 1569	  0.1736	 13.1200	  13.120	  78.495
 1570	  0.1740	 13.1287	  13.129	  78.545
 1571	  0.1736	 13.1375	  13.137	  78.595
 1572	  0.1744	 13.1450	  13.145	  78.645
 1573	  0.1744	 13.1537	  13.154	  78.695
 1574	  0.1740	 13.1613	  13.161	  78.745
 1575	  0.1748	 13.1700	  13.170	  78.795
 1576	  0.1748	 13.1788	  13.179	  78.845
 1577	  0.1740	 13.1862	  13.186	  78.895
 1578	  0.1740	 13.1950	  13.195	  78.945
 1579	  0.1740	 13.2037	  13.204	  78.995
 1580	  0.1744	 13.2112	  13.211	  79.045
 1581	  0.1752	 13.2200	  13.220	  79.095
 1582	  0.1752	 13.2287	  13.229	  79.145
 1583	  0.1752	 13.2375	  13.237	  79.195
 1584	  0.1744	 13.2450	  13.245	  79.245
 1585	  0.1748	 13.2537	  13.254	  79.295
 1586	  0.1748	 13.2612	  13.261	  79.345
 1587	  0.1740	 13.2700	  13.270	  79.395
 1588	  0.1744	 13.2787	  13.279	  79.445
 1589	  0.1744	 13.2863	  13.286	  79.495
 1590	  0.1748	 13.2950	  13.295	  79.545
 1591	  0.1752	 13.3038	  13.304	  79.595
 1592	  0.1748	 13.3112	  13.311	  79.645
 1593	  0.1744	 13.3200	  13.320	  79.695
 1594	  0.1748	 13.3275	  13.327	  79.745
 1595	  0.1752	 13.3362	  13.336	  79.795
 1596	  0.1748	 13.3450	  13.345	  79.845
 1597	  0.1740	 13.3525	  13.352	  79.895
 1598	  0.1744	 13.3612	  13.361	  79.945
 1599	  0.1744	 13.3700	  13.370	  79.995
 1600	  0.1752	 13.3775	  13.377	  80.045
 1601	  0.1744	 13.3862	  13.386	  80.095
 1602	  0.1748	 13.3950	  13.395	  80.145
 1603	  0.1740	 13.4025	  13.403	  80.195
 1604	  0.1748	 13.4113	  13.411	  80.245
 1605	  0.1752	 13.4200	  13.420	  80.295
 1606	  0.1756	 13.4275	  13.427	  80.345
 1607	  0.1748	 13.4362	  13.436	  80.395
 1608	  0.1748	 13.4450	  13.445	  80.445
 1609	  0.1752	 13.4525	  13.452	  80.495
 1610	  0.1752	 13.4612	  13.461	  80.545
 1611	  0.1752	 13.4700	  13.470	  80.595
 1612	  0.1748	 13.4775	  13.477	  80.645
 1613	  0.1752	 13.4862	  13.486	  80.695
 1614	  0.1744	 13.4950	  13.495	  80.745
 1615	  0.1748	 13.5025	  13.502	  80.795
 1616	  0.1752	 13.5112	  13.511	  80.845
 1617	  0.1748	 13.5200	  13.520	  80.895
 1618	  0.1752	 13.5287	  13.529	  80.945
 1619	  0.1760	 13.5363	  13.536	  80.995
 1620	  0.1760	 13.5450	  13.545	  81.045
 1621	  0.1764	 13.5525	  13.552	  81.095
 1622	  0.1760	 13.5612	  13.561	  81.145
 1623	  0.1764	 13.5700	  13.570	  81.195
 1624	  0.1756	 13.5775	  13.577	  81.245
 1625	  0.1760	 13.5862	  13.586	  81.295
 1626	  0.1756	 13.5950	  13.595	  81.345
 1627	  0.1764	 13.6025	  13.602	  81.395
 1628	  0.1764	 13.6112	  13.611	  81.445
 1629	  0.1760	 13.6200	  13.620	  81.495
 1630	  0.1764	 13.6275	  13.627	  81.545
 1631	  0.1764	 13.6362	  13.636	  81.595
 1632	  0.1760	 13.6450	  13.645	  81.645
 1633	  0.1760	 13.6537	  13.654	  81.695
 1634	  0.1764	 13.6613	  13.661	  81.745
 1635	  0.1768	 13.6700	  13.670	  81.795
 1636	  0.1772	 13.6788	  13.679	  81.845
 1637	  0.1768	 13.6862	  13.686	  81.895
 1638	  0.1764	 13.6950	  13.695	  81.945
 1639	  0.1764	 13.7037	  13.704	  81.995
 1640	  0.1772	 13.7112	  13.711	  82.045
 1641	  0.1768	 13.7200	  13.720	  82.095
 1642	  0.1772	 13.7287	  13.729	  82.145
 1643	  0.1768	 13.7362	  13.736	  82.195
 1644	  0.1772	 13.7450	  13.745	  82.245
 1645	  0.1772	 13.7537	  13.754	  82.295
 1646	  0.1772	 13.7612	  13.761	  82.345
 1647	  0.1780	 13.7700	  13.770	  82.395
 1648	  0.1780	 13.7787	  13.779	  82.445
 1649	  0.1776	 13.7863	  13.786	  82.495
 1650	  0.1772	 13.7950	  13.795	  82.545
 1651	  0.1780	 13.8038	  13.804	  82.595
 1652	  0.1780	 13.8112	  13.811	  82.645
 1653	  0.1772	 13.8200	  13.820	  82.695
 1654	  0.1776	 13.8287	  13.829	  82.745
 1655	  0.1780	 13.8375	  13.837	  82.795
 1656	  0.1780	 13.8450	  13.845	  82.845
 1657	  0.1780	 13.8537	  13.854	  82.895
 1658	  0.1780	 13.8625	  13.862	  82.945
 1659	  0.1776	 13.8700	  13.870	  82.995
 1660	  0.1780	 13.8787	  13.879	  83.045
 1661	  0.1776	 13.8875	  13.887	  83.095
 1662	  0.1776	 13.8950	  13.895	  83.145
 1663	  0.1776	 13.9037	  13.904	  83.195
 1664	  0.1772	 13.9125	  13.912	  83.245
 1665	  0.1780	 13.9200	  13.920	  83.295
 1666	  0.1780	 13.9288	  13.929	  83.345
 1667	  0.1784	 13.9375	  13.938	  83.395
 1668	  0.1776	 13.9450	  13.945	  83.445
 1669	  0.1780	 13.9537	  13.954	  83.495
 1670	  0.1780	 13.9625	  13.962	  83.545
 1671	  0.1784	 13.9712	  13.971	  83.595
 1672	  0.1788	 13.9787	  13.979	  83.645
 1673	  0.1788	 13.9875	  13.987	  83.695
 1674	  0.1788	 13.9963	  13.996	  83.745
 1675	  0.1788	 14.0037	  14.004	  83.795
 1676	  0.1788	 14.0125	  14.012	  83.845
 1677	  0.1796	 14.0212	  14.021	  83.895
 1678	  0.1796	 14.0287	  14.029	  83.945
 1679	  0.1800	 14.0375	  14.037	  83.995
 1680	  0.1796	 14.0462	  14.046	  84.045
 1681	  0.1792	 14.0538	  14.054	  84.095
 1682	  0.1792	 14.0625	  14.062	  84.145
 1683	  0.1788	 14.0712	  14.071	  84.195
 1684	  0.1792	 14.0787	  14.079	  84.245
 1685	  0.1792	 14.0875	  14.087	  84.295
 1686	  0.1792	 14.0962	  14.096	  84.345
 1687	  0.1792	 14.1037	  14.104	  84.395
 1688	  0.1792	 14.1125	  14.112	  84.445
 1689	  0.1792	 14.1213	  14.121	  84.495
 1690	  0.1796	 14.1287	  14.129	  84.545
 1691	  0.1800	 14.1375	  14.137	  84.595
 1692	  0.1796	 14.1462	  14.146	  84.645
 1693	  0.1796	 14.1550	  14.155	  84.695
 1694	  0.1804	 14.1625	  14.162	  84.745
 1695	  0.1800	 14.1712	  14.171	  84.795
 1696	  0.1796	 14.1800	  14.180	  84.845
 1697	  0.1808	 14.1875	  14.188	  84.895
 1698	  0.1808	 14.1962	  14.196	  84.945
 1699	  0.1808	 14.2050	  14.205	  84.995
 1700	  0.1804	 14.2125	  14.212	  85.045
 1701	  0.1812	 14.2212	  14.221	  85.095
 1702	  0.1808	 14.2300	  14.230	  85.145
 1703	  0.1804	 14.2375	  14.237	  85.195
 1704	  0.1812	 14.2463	  14.246	  85.245
 1705	  0.1808	 14.2550	  14.255	  85.295
 1706	  0.1812	 14.2625	  14.262	  85.345
 1707	  0.1808	 14.2712	  14.271	  85.395
 1708	  0.1812	 14.2800	  14.280	  85.445
 1709	  0.1808	 14.2875	  14.287	  85.495
 1710	  0.1812	 14.2962	  14.296	  85.545
 1711	  0.1812	 14.3050	  14.305	  85.595
 1712	  0.1804	 14.3125	  14.312	  85.645
 1713	  0.1808	 14.3212	  14.321	  85.695
 1714	  0.1808	 14.3300	  14.330	  85.745
 1715	  0.1804	 14.3387	  14.339	  85.795
 1716	  0.1804	 14.3462	  14.346	  85.845
 1717	  0.1812	 14.3550	  14.355	  85.895
 1718	  0.1808	 14.3637	  14.364	  85.945
 1719	  0.1808	 14.3713	  14.371	  85.995
 1720	  0.1804	 14.3800	  14.380	  86.045
 1721	  0.1800	 14.3888	  14.389	  86.095
 1722	  0.1800	 14.3962	  14.396	  86.145
 1723	  0.1808	 14.4050	  14.405	  86.195
 1724	  0.1808	 14.4137	  14.414	  86.245
 1725	  0.1812	 14.4225	  14.422	  86.295
 1726	  0.1808	 14.4300	  14.430	  86.345
 1727	  0.1808	 14.4387	  14.439	  86.395
 1728	  0.1812	 14.4475	  14.447	  86.445
 1729	  0.1804	 14.4550	  14.455	  86.495
 1730	  0.1804	 14.4637	  14.464	  86.545
 1731	  0.1804	 14.4725	  14.472	  86.595
 1732	  0.1804	 14.4812	  14.481	  86.645
 1733	  0.1808	 14.4887	  14.489	  86.695
 1734	  0.1804	 14.4975	  14.497	  86.745
 1735	  0.1800	 14.5062	  14.506	  86.795
 1736	  0.1804	 14.5138	  14.514	  86.845
 1737	  0.1816	 14.5225	  14.523	  86.895
 1738	  0.1812	 14.5312	  14.531	  86.945
 1739	  0.1812	 14.5387	  14.539	  86.995
 1740	  0.1812	 14.5475	  14.547	  87.045
 1741	  0.1808	 14.5562	  14.556	  87.095
 1742	  0.1812	 14.5637	  14.564	  87.145
 1743	  0.1816	 14.5725	  14.572	  87.195
 1744	  0.1820	 14.5812	  14.581	  87.245
 1745	  0.1824	 14.5887	  14.589	  87.295
 1746	  0.1820	 14.5975	  14.597	  87.345
 1747	  0.1820	 14.6062	  14.606	  87.395
 1748	  0.1816	 14.6150	  14.615	  87.445
 1749	  0.1808	 14.6225	  14.622	  87.495
 1750	  0.1816	 14.6312	  14.631	  87.545
 1751	  0.1816	 14.6400	  14.640	  87.595
 1752	  0.1816	 14.6475	  14.648	  87.645
 1753	  0.1820	 14.6562	  14.656	  87.695
 1754	  0.1816	 14.6650	  14.665	  87.745
 1755	  0.1820	 14.6725	  14.672	  87.795
 1756	  0.1824	 14.6812	  14.681	  87.845
 1757	  0.1820	 14.6900	  14.690	  87.895
 1758	  0.1820	 14.6987	  14.699	  87.945
 1759	  0.1824	 14.7062	  14.706	  87.995
 1760	  0.1824	 14.7150	  14.715	  88.045
 1761	  0.1824	 14.7238	  14.724	  88.095
 1762	  0.1824	 14.7312	  14.731	  88.145
 1763	  0.1820	 14.7400	  14.740	  88.195
 1764	  0.1824	 14.7487	  14.749	  88.245
 1765	  0.1820	 14.7575	  14.757	  88.295
 1766	  0.1824	 14.7650	  14.765	  88.345
 1767	  0.1828	 14.7737	  14.774	  88.395
 1768	  0.1828	 14.7825	  14.782	  88.445
 1769	  0.1832	 14.7900	  14.790	  88.495
 1770	  0.1836	 14.7987	  14.799	  88.545
 1771	  0.1824	 14.8075	  14.807	  88.595
 1772	  0.1828	 14.8150	  14.815	  88.645
 1773	  0.1824	 14.8237	  14.824	  88.695
 1774	  0.1828	 14.8325	  14.832	  88.745
 1775	  0.1828	 14.8412	  14.841	  88.795
 1776	  0.1832	 14.8488	  14.849	  88.845
 1777	  0.1836	 14.8575	  14.858	  88.895
 1778	  0.1840	 14.8663	  14.866	  88.945
 1779	  0.1832	 14.8737	  14.874	  88.995
 1780	  0.1836	 14.8825	  14.882	  89.045
 1781	  0.1832	 14.8912	  14.891	  89.095
 1782	  0.1836	 14.8987	  14.899	  89.145
 1783	  0.1840	 14.9075	  14.907	  89.195
 1784	  0.1832	 14.9162	  14.916	  89.245
 1785	  0.1840	 14.9250	  14.925	  89.295
 1786	  0.1836	 14.9325	  14.932	  89.345
 1787	  0.1840	 14.9412	  14.941	  89.395
 1788	  0.1832	 14.9500	  14.950	  89.445
 1789	  0.1828	 14.9575	  14.957	  89.495
 1790	  0.1836	 14.9662	  14.966	  89.545
 1791	  0.1840	 14.9750	  14.975	  89.595
 1792	  0.1840	 14.9825	  14.983	  89.645
 1793	  0.1840	 14.9913	  14.991	  89.695
 1794	  0.1844	 15.0000	  15.000	  89.745
 1795	  0.1844	 15.0087	  15.009	  89.795
 1796	  0.1836	 15.0162	  15.016	  89.845
 1797	  0.1840	 15.0250	  15.025	  89.895
 1798	  0.1844	 15.0337	  15.034	  89.945
 1799	  0.1840	 15.0412	  15.041	  89.995
 1800	  0.1840	 15.0500	  15.050	  90.045
 1801	  0.1840	 15.0587	  15.059	  90.095
 1802	  0.1836	 15.0675	  15.068	  90.145
 1803	  0.1840	 15.0750	  15.075	  90.195
 1804	  0.1844	 15.0837	  15.084	  90.245
 1805	  0.1844	 15.0925	  15.092	  90.295
 1806	  0.1844	 15.1000	  15.100	  90.345
 1807	  0.1848	 15.1087	  15.109	  90.395
 1808	  0.1848	 15.1175	  15.117	  90.445
 1809	  0.1848	 15.1250	  15.125	  90.495
 1810	  0.1840	 15.1337	  15.134	  90.545
 1811	  0.1844	 15.1425	  15.142	  90.595
 1812	  0.1844	 15.1500	  15.150	  90.645
 1813	  0.1848	 15.1587	  15.159	  90.695
 1814	  0.1844	 15.1675	  15.167	  90.745
 1815	  0.1844	 15.1750	  15.175	  90.795
 1816	  0.1848	 15.1837	  15.184	  90.845
 1817	  0.1844	 15.1925	  15.193	  90.895
 1818	  0.1848	 15.2013	  15.201	  90.945
 1819	  0.1840	 15.2087	  15.209	  90.995
 1820	  0.1852	 15.2175	  15.217	  91.045
 1821	  0.1852	 15.2262	  15.226	  91.095
 1822	  0.1852	 15.2337	  15.234	  91.145
 1823	  0.1848	 15.2425	  15.242	  91.195
 1824	  0.1844	 15.2512	  15.251	  91.245
 1825	  0.1848	 15.2600	  15.260	  91.295
 1826	  0.1848	 15.2675	  15.267	  91.345
 1827	  0.1852	 15.2762	  15.276	  91.395
 1828	  0.1852	 15.2850	  15.285	  91.445
 1829	  0.1856	 15.2925	  15.292	  91.495
 1830	  0.1852	 15.3012	  15.301	  91.545
 1831	  0.1852	 15.3100	  15.310	  91.595
 1832	  0.1852	 15.3175	  15.318	  91.645
 1833	  0.1848	 15.3263	  15.326	  91.695
 1834	  0.1852	 15.3350	  15.335	  91.745
 1835	  0.1852	 15.3438	  15.344	  91.795
 1836	  0.1852	 15.3512	  15.351	  91.845
 1837	  0.1848	 15.3600	  15.360	  91.895
 1838	  0.1856	 15.3687	  15.369	  91.945
 1839	  0.1856	 15.3762	  15.376	  91.995
 1840	  0.1852	 15.3850	  15.385	  92.045
 1841	  0.1856	 15.3937	  15.394	  92.095
 1842	  0.1860	 15.4012	  15.401	  92.145
 1843	  0.1860	 15.4100	  15.410	  92.195
 1844	  0.1852	 15.4187	  15.419	  92.245
 1845	  0.1852	 15.4262	  15.426	  92.295
 1846	  0.1856	 15.4350	  15.435	  92.345
 1847	  0.1852	 15.4437	  15.444	  92.395
 1848	  0.1856	 15.4525	  15.452	  92.445
 1849	  0.1860	 15.4600	  15.460	  92.495
 1850	  0.1860	 15.4688	  15.469	  92.545
 1851	  0.1860	 15.4775	  15.477	  92.595
 1852	  0.1864	 15.4850	  15.485	  92.645
 1853	  0.1864	 15.4937	  15.494	  92.695
 1854	  0.1872	 15.5025	  15.502	  92.745
 1855	  0.1864	 15.5100	  15.510	  92.795
 1856	  0.1868	 15.5187	  15.519	  92.845
 1857	  0.1872	 15.5275	  15.527	  92.895
 1858	  0.1872	 15.5350	  15.535	  92.945
 1859	  0.1872	 15.5437	  15.544	  92.995
 1860	  0.1872	 15.5525	  15.552	  93.045
 1861	  0.1872	 15.5600	  15.560	  93.095
 1862	  0.1872	 15.5687	  15.569	  93.145
 1863	  0.1872	 15.5775	  15.577	  93.195
 1864	  0.1876	 15.5862	  15.586	  93.245
 1865	  0.1876	 15.5938	  15.594	  93.295
 1866	  0.1876	 15.6025	  15.602	  93.345
 1867	  0.1876	 15.6112	  15.611	  93.395
 1868	  0.1876	 15.6200	  15.620	  93.445
 1869	  0.1876	 15.6275	  15.627	  93.495
 1870	  0.1872	 15.6362	  15.636	  93.545
 1871	  0.1880	 15.6450	  15.645	  93.595
 1872	  0.1872	 15.6525	  15.652	  93.645
 1873	  0.1876	 15.6613	  15.661	  93.695
 1874	  0.1872	 15.6700	  15.670	  93.745
 1875	  0.1872	 15.6775	  15.677	  93.795
 1876	  0.1872	 15.6862	  15.686	  93.845
 1877	  0.1876	 15.6950	  15.695	  93.895
 1878	  0.1876	 15.7025	  15.702	  93.945
 1879	  0.1872	 15.7112	  15.711	  93.995
 1880	  0.1876	 15.7200	  15.720	  94.045
 1881	  0.1872	 15.7275	  15.727	  94.095
 1882	  0.1872	 15.7362	  15.736	  94.145
 1883	  0.1872	 15.7450	  15.745	  94.195
 1884	  0.1868	 15.7537	  15.754	  94.245
 1885	  0.1872	 15.7612	  15.761	  94.295
 1886	  0.1876	 15.7700	  15.770	  94.345
 1887	  0.1876	 15.7787	  15.779	  94.395
 1888	  0.1880	 15.7863	  15.786	  94.445
 1889	  0.1880	 15.7950	  15.795	  94.495
 1890	  0.1884	 15.8038	  15.804	  94.545
 1891	  0.1880	 15.8112	  15.811	  94.595
 1892	  0.1880	 15.8200	  15.820	  94.645
 1893	  0.1880	 15.8287	  15.829	  94.695
 1894	  0.1880	 15.8362	  15.836	  94.745
 1895	  0.1872	 15.8450	  15.845	  94.795
 1896	  0.1880	 15.8537	  15.854	  94.845
 1897	  0.1884	 15.8612	  15.861	  94.895
 1898	  0.1884	 15.8700	  15.870	  94.945
 1899	  0.1884	 15.8787	  15.879	  94.995
 1900	  0.1888	 15.8875	  15.887	  95.045
 1901	  0.1888	 15.8950	  15.895	  95.095
 1902	  0.1888	 15.9037	  15.904	  95.145
 1903	  0.1880	 15.9125	  15.912	  95.195
 1904	  0.1880	 15.9200	  15.920	  95.245
 1905	  0.1876	 15.9288	  15.929	  95.295
 1906	  0.1876	 15.9375	  15.938	  95.345
 1907	  0.1884	 15.9450	  15.945	  95.395
 1908	  0.1884	 15.9537	  15.954	  95.445
 1909	  0.1884	 15.9625	  15.962	  95.495
 1910	  0.1880	 15.9700	  15.970	  95.545
 1911	  0.1880	 15.9787	  15.979	  95.595
 1912	  0.1884	 15.9875	  15.987	  95.645
 1913	  0.1884	 15.9962	  15.996	  95.695
 1914	  0.1892	 16.0037	  16.004	  95.745
 1915	  0.1892	 16.0125	  16.012	  95.795
 1916	  0.1888	 16.0212	  16.021	  95.845
 1917	  0.1880	 16.0287	  16.029	  95.895
 1918	  0.1884	 16.0375	  16.038	  95.945
 1919	  0.1888	 16.0462	  16.046	  95.995
 1920	  0.1888	 16.0537	  16.054	  96.045
 1921	  0.1884	 16.0625	  16.062	  96.095
 1922	  0.1884	 16.0712	  16.071	  96.145
 1923	  0.1888	 16.0787	  16.079	  96.195
 1924	  0.1896	 16.0875	  16.087	  96.245
 1925	  0.1892	 16.0963	  16.096	  96.295
 1926	  0.1896	 16.1038	  16.104	  96.345
 1927	  0.1888	 16.1125	  16.112	  96.395
 1928	  0.1892	 16.1213	  16.121	  96.445
 1929	  0.1888	 16.1287	  16.129	  96.495
 1930	  0.1892	 16.1375	  16.137	  96.545
 1931	  0.1896	 16.1462	  16.146	  96.595
 1932	  0.1896	 16.1537	  16.154	  96.645
 1933	  0.1888	 16.1625	  16.163	  96.695
 1934	  0.1892	 16.1712	  16.171	  96.745
 1935	  0.1896	 16.1800	  16.180	  96.795
 1936	  0.1892	 16.1875	  16.188	  96.845
 1937	  0.1892	 16.1962	  16.196	  96.895
 1938	  0.1888	 16.2050	  16.205	  96.945
 1939	  0.1892	 16.2125	  16.212	  96.995
 1940	  0.1888	 16.2213	  16.221	  97.045
 1941	  0.1892	 16.2300	  16.230	  97.095
 1942	  0.1896	 16.2375	  16.237	  97.145
 1943	  0.1892	 16.2463	  16.246	  97.195
 1944	  0.1896	 16.2550	  16.255	  97.245
 1945	  0.1904	 16.2625	  16.262	  97.295
 1946	  0.1900	 16.2712	  16.271	  97.345
 1947	  0.1908	 16.2800	  16.280	  97.395
 1948	  0.1896	 16.2875	  16.288	  97.445
 1949	  0.1896	 16.2962	  16.296	  97.495
 1950	  0.1900	 16.3050	  16.305	  97.545
 1951	  0.1896	 16.3137	  16.314	  97.595
 1952	  0.1896	 16.3212	  16.321	  97.645
 1953	  0.1896	 16.3300	  16.330	  97.695
 1954	  0.1896	 16.3387	  16.339	  97.745
 1955	  0.1896	 16.3463	  16.346	  97.795
 1956	  0.1900	 16.3550	  16.355	  97.845
 1957	  0.1896	 16.3625	  16.362	  97.895
 1958	  0.1896	 16.3713	  16.371	  97.945
 1959	  0.1900	 16.3800	  16.380	  97.995
 1960	  0.1904	 16.3875	  16.387	  98.045
 1961	  0.1904	 16.3962	  16.396	  98.095
 1962	  0.1904	 16.4050	  16.405	  98.145
 1963	  0.1904	 16.4125	  16.413	  98.195
 1964	  0.1900	 16.4212	  16.421	  98.245
 1965	  0.1904	 16.4300	  16.430	  98.295
 1966	  0.1900	 16.4375	  16.438	  98.345
 1967	  0.1900	 16.4462	  16.446	  98.395
 1968	  0.1900	 16.4550	  16.455	  98.445
 1969	  0.1900	 16.4637	  16.464	  98.495
 1970	  0.1900	 16.4713	  16.471	  98.545
 1971	  0.1900	 16.4800	  16.480	  98.595
 1972	  0.1904	 16.4875	  16.487	  98.645
 1973	  0.1908	 16.4963	  16.496	  98.695
 1974	  0.1912	 16.5050	  16.505	  98.745
 1975	  0.1904	 16.5125	  16.512	  98.795
 1976	  0.1908	 16.5212	  16.521	  98.845
 1977	  0.1908	 16.5300	  16.530	  98.895
 1978	  0.1904	 16.5375	  16.538	  98.945
 1979	  0.1908	 16.5462	  16.546	  98.995
 1980	  0.1912	 16.5550	  16.555	  99.045
 1981	  0.1908	 16.5625	  16.562	  99.095
 1982	  0.1908	 16.5712	  16.571	  99.145
 1983	  0.1912	 16.5800	  16.580	  99.195
 1984	  0.1916	 16.5887	  16.589	  99.245
 1985	  0.1920	 16.5963	  16.596	  99.295
 1986	  0.1916	 16.6050	  16.605	  99.345
 1987	  0.1924	 16.6138	  16.614	  99.395
 1988	  0.1924	 16.6213	  16.621	  99.445
 1989	  0.1920	 16.6300	  16.630	  99.495
 1990	  0.1916	 16.6375	  16.637	  99.545
 1991	  0.1916	 16.6462	  16.646	  99.595
 1992	  0.1920	 16.6550	  16.655	  99.645
 1993	  0.1920	 16.6637	  16.664	  99.695
 1994	  0.1920	 16.6712	  16.671	  99.745
 1995	  0.1920	 16.6800	  16.680	  99.795
 1996	  0.1920	 16.6875	  16.688	  99.845
 1997	  0.1920	 16.6962	  16.696	  99.895
 1998	  0.1920	 16.7050	  16.705	  99.945
 1999	  0.1920	 16.7137	  16.714	  99.995
 2000	  0.1920	 16.7213	  16.721	 100.045
 2001	  0.1924	 16.7300	  16.730	 100.095
 2002	  0.1924	 16.7375	  16.737	 100.145
 2003	  0.1920	 16.7463	  16.746	 100.195
 2004	  0.1916	 16.7550	  16.755	 100.245
 2005	  0.1924	 16.7638	  16.764	 100.295
 2006	  0.1924	 16.7712	  16.771	 100.345
 2007	  0.1928	 16.7800	  16.780	 100.395
 2008	  0.1924	 16.7887	  16.789	 100.445
 2009	  0.1924	 16.7962	  16.796	 100.495
 2010	  0.1924	 16.8050	  16.805	 100.545
 2011	  0.1924	 16.8137	  16.814	 100.595
 2012	  0.1924	 16.8212	  16.821	 100.645
 2013	  0.1928	 16.8300	  16.830	 100.695
 2014	  0.1928	 16.8387	  16.839	 100.745
 2015	  0.1928	 16.8463	  16.846	 100.795
 2016	  0.1924	 16.8550	  16.855	 100.845
 2017	  0.1924	 16.8638	  16.864	 100.895
 2018	  0.1928	 16.8713	  16.871	 100.945
 2019	  0.1932	 16.8800	  16.880	 100.995
 2020	  0.1932	 16.8888	  16.889	 101.045
 2021	  0.1928	 16.8962	  16.896	 101.095
 2022	  0.1928	 16.9050	  16.905	 101.145
 2023	  0.1928	 16.9137	  16.914	 101.195
 2024	  0.1924	 16.9212	  16.921	 101.245
 2025	  0.1924	 16.9300	  16.930	 101.295
 2026	  0.1924	 16.9387	  16.939	 101.345
 2027	  0.1928	 16.9462	  16.946	 101.395
 2028	  0.1928	 16.9550	  16.955	 101.445
 2029	  0.1928	 16.9637	  16.964	 101.495
 2030	  0.1932	 16.9713	  16.971	 101.545
 2031	  0.1932	 16.9800	  16.980	 101.595
 2032	  0.1932	 16.9888	  16.989	 101.645
 2033	  0.1928	 16.9963	  16.996	 101.695
 2034	  0.1928	 17.0050	  17.005	 101.745
 2035	  0.1932	 17.0138	  17.014	 101.795
 2036	  0.1940	 17.0212	  17.021	 101.845
 2037	  0.1932	 17.0300	  17.030	 101.895
 2038	  0.1936	 17.0387	  17.039	 101.945
 2039	  0.1932	 17.0475	  17.047	 101.995
 2040	  0.1928	 17.0550	  17.055	 102.045
 2041	  0.1932	 17.0637	  17.064	 102.095
 2042	  0.1932	 17.0712	  17.071	 102.145
 2043	  0.1936	 17.0800	  17.080	 102.195
 2044	  0.1936	 17.0887	  17.089	 102.245
 2045	  0.1936	 17.0963	  17.096	 102.295
 2046	  0.1940	 17.1050	  17.105	 102.345
 2047	  0.1932	 17.1138	  17.114	 102.395
 2048	  0.1928	 17.1213	  17.121	 102.445
 2049	  0.1932	 17.1300	  17.130	 102.495
 2050	  0.1928	 17.1388	  17.139	 102.545
 2051	  0.1928	 17.1462	  17.146	 102.595
 2052	  0.1936	 17.1550	  17.155	 102.645
 2053	  0.1936	 17.1637	  17.164	 102.695
 2054	  0.1936	 17.1712	  17.171	 102.745
 2055	  0.1932	 17.1800	  17.180	 102.795
 2056	  0.1932	 17.1887	  17.189	 102.845
 2057	  0.1932	 17.1962	  17.196	 102.895
 2058	  0.1928	 17.2050	  17.205	 102.945
 2059	  0.1940	 17.2137	  17.214	 102.995
 2060	  0.1936	 17.2213	  17.221	 103.045
 2061	  0.1936	 17.2300	  17.230	 103.095
 2062	  0.1944	 17.2388	  17.239	 103.145
 2063	  0.1940	 17.2463	  17.246	 103.195
 2064	  0.1940	 17.2550	  17.255	 103.245
 2065	  0.1944	 17.2638	  17.264	 103.295
 2066	  0.1944	 17.2712	  17.271	 103.345
 2067	  0.1948	 17.2800	  17.280	 103.395
 2068	  0.1944	 17.2887	  17.289	 103.445
 2069	  0.1944	 17.2962	  17.296	 103.495
 2070	  0.1940	 17.3050	  17.305	 103.545
 2071	  0.1944	 17.3137	  17.314	 103.595
 2072	  0.1944	 17.3212	  17.321	 103.645
 2073	  0.1944	 17.3300	  17.330	 103.695
 2074	  0.1944	 17.3387	  17.339	 103.745
 2075	  0.1940	 17.3463	  17.346	 103.795
 2076	  0.1944	 17.3550	  17.355	 103.845
 2077	  0.1944	 17.3625	  17.362	 103.895
 2078	  0.1940	 17.3713	  17.371	 103.945
 2079	  0.1948	 17.3800	  17.380	 103.995
 2080	  0.1948	 17.3888	  17.389	 104.045
 2081	  0.1952	 17.3962	  17.396	 104.095
 2082	  0.1956	 17.4050	  17.405	 104.145
 2083	  0.1948	 17.4137	  17.414	 104.195
 2084	  0.1944	 17.4212	  17.421	 104.245
 2085	  0.1940	 17.4300	  17.430	 104.295
 2086	  0.1944	 17.4387	  17.439	 104.345
 2087	  0.1940	 17.4462	  17.446	 104.395
 2088	  0.1944	 17.4550	  17.455	 104.445
 2089	  0.1948	 17.4637	  17.464	 104.495
 2090	  0.1948	 17.4713	  17.471	 104.545
 2091	  0.1944	 17.4800	  17.480	 104.595
 2092	  0.1952	 17.4875	  17.487	 104.645
 2093	  0.1944	 17.4963	  17.496	 104.695
 2094	  0.1944	 17.5050	  17.505	 104.745
 2095	  0.1948	 17.5125	  17.512	 104.795
 2096	  0.1956	 17.5212	  17.521	 104.845
 2097	  0.1956	 17.5300	  17.530	 104.895
 2098	  0.1948	 17.5375	  17.538	 104.945
 2099	  0.1952	 17.5462	  17.546	 104.995
 2100	  0.1948	 17.5550	  17.555	 105.045
 2101	  0.1952	 17.5637	  17.564	 105.095
 2102	  0.1952	 17.5712	  17.571	 105.145
 2103	  0.1952	 17.5800	  17.580	 105.195
 2104	  0.1952	 17.5887	  17.589	 105.245
 2105	  0.1956	 17.5963	  17.596	 105.295
 2106	  0.1952	 17.6050	  17.605	 105.345
 2107	  0.1952	 17.6138	  17.614	 105.395
 2108	  0.1952	 17.6213	  17.621	 105.445
 2109	  0.1952	 17.6300	  17.630	 105.495
 2110	  0.1952	 17.6388	  17.639	 105.545
 2111	  0.1964	 17.6462	  17.646	 105.595
 2112	  0.1960	 17.6550	  17.655	 105.645
 2113	  0.1960	 17.6637	  17.664	 105.695
 2114	  0.1960	 17.6712	  17.671	 105.745
 2115	  0.1960	 17.6800	  17.680	 105.795
 2116	  0.1956	 17.6887	  17.689	 105.845
 2117	  0.1956	 17.6975	  17.698	 105.895
 2118	  0.1964	 17.7050	  17.705	 105.945
 2119	  0.1956	 17.7137	  17.714	 105.995
 2120	  0.1960	 17.7225	  17.722	 106.045
 2121	  0.1960	 17.7300	  17.730	 106.095
 2122	  0.1960	 17.7388	  17.739	 106.145
 2123	  0.1960	 17.7475	  17.747	 106.195
 2124	  0.1956	 17.7550	  17.755	 106.245
 2125	  0.1956	 17.7638	  17.764	 106.295
 2126	  0.1960	 17.7725	  17.772	 106.345
 2127	  0.1964	 17.7800	  17.780	 106.395
 2128	  0.1964	 17.7887	  17.789	 106.445
 2129	  0.1960	 17.7975	  17.797	 106.495
 2130	  0.1964	 17.8050	  17.805	 106.545
 2131	  0.1968	 17.8137	  17.814	 106.595
 2132	  0.1964	 17.8225	  17.823	 106.645
 2133	  0.1972	 17.8312	  17.831	 106.695
 2134	  0.1968	 17.8387	  17.839	 106.745
 2135	  0.1964	 17.8475	  17.847	 106.795
 2136	  0.1968	 17.8562	  17.856	 106.845
 2137	  0.1964	 17.8638	  17.864	 106.895
 2138	  0.1960	 17.8725	  17.872	 106.945
 2139	  0.1964	 17.8813	  17.881	 106.995
 2140	  0.1964	 17.8888	  17.889	 107.045
 2141	  0.1960	 17.8975	  17.897	 107.095
 2142	  0.1956	 17.9062	  17.906	 107.145
 2143	  0.1964	 17.9150	  17.915	 107.195
 2144	  0.1964	 17.9225	  17.922	 107.245
 2145	  0.1968	 17.9312	  17.931	 107.295
 2146	  0.1964	 17.9400	  17.940	 107.345
 2147	  0.1968	 17.9475	  17.948	 107.395
 2148	  0.1964	 17.9562	  17.956	 107.445
 2149	  0.1960	 17.9650	  17.965	 107.495
 2150	  0.1964	 17.9725	  17.972	 107.545
 2151	  0.1972	 17.9812	  17.981	 107.595
 2152	  0.1976	 17.9900	  17.990	 107.645
 2153	  0.1964	 17.9987	  17.999	 107.695
 2154	  0.1964	 18.0063	  18.006	 107.745
 2155	  0.1964	 18.0150	  18.015	 107.795
 2156	  0.1964	 18.0225	  18.022	 107.845
 2157	  0.1960	 18.0312	  18.031	 107.895
 2158	  0.1964	 18.0400	  18.040	 107.945
 2159	  0.1964	 18.0487	  18.049	 107.995
 2160	  0.1976	 18.0562	  18.056	 108.045
 2161	  0.1972	 18.0650	  18.065	 108.095
 2162	  0.1976	 18.0737	  18.074	 108.145
 2163	  0.1984	 18.0812	  18.081	 108.195
 2164	  0.1984	 18.0900	  18.090	 108.245
 2165	  0.1980	 18.0987	  18.099	 108.295
 2166	  0.1980	 18.1075	  18.108	 108.345
 2167	  0.1976	 18.1150	  18.115	 108.395
 2168	  0.1976	 18.1237	  18.124	 108.445
 2169	  0.1972	 18.1325	  18.132	 108.495
 2170	  0.1980	 18.1400	  18.140	 108.545
 2171	  0.1976	 18.1488	  18.149	 108.595
 2172	  0.1980	 18.1575	  18.157	 108.645
 2173	  0.1972	 18.1650	  18.165	 108.695
 2174	  0.1976	 18.1737	  18.174	 108.745
 2175	  0.1984	 18.1825	  18.182	 108.795
 2176	  0.1980	 18.1912	  18.191	 108.845
 2177	  0.1980	 18.1987	  18.199	 108.895
 2178	  0.1984	 18.2075	  18.208	 108.945
 2179	  0.1976	 18.2162	  18.216	 108.995
 2180	  0.1980	 18.2237	  18.224	 109.045
 2181	  0.1980	 18.2325	  18.233	 109.095
 2182	  0.1980	 18.2412	  18.241	 109.145
 2183	  0.1980	 18.2487	  18.249	 109.195
 2184	  0.1976	 18.2575	  18.257	 109.245
 2185	  0.1984	 18.2662	  18.266	 109.295
 2186	  0.1980	 18.2738	  18.274	 109.345
 2187	  0.1980	 18.2825	  18.282	 109.395
 2188	  0.1980	 18.2913	  18.291	 109.445
 2189	  0.1988	 18.3000	  18.300	 109.495
 2190	  0.1980	 18.3075	  18.307	 109.545
 2191	  0.1984	 18.3162	  18.316	 109.595
 2192	  0.1980	 18.3250	  18.325	 109.645
 2193	  0.1980	 18.3325	  18.333	 109.695
 2194	  0.1980	 18.3412	  18.341	 109.745
 2195	  0.1980	 18.3500	  18.350	 109.795
 2196	  0.1984	 18.3575	  18.358	 109.845
 2197	  0.1976	 18.3662	  18.366	 109.895
 2198	  0.1980	 18.3750	  18.375	 109.945
 2199	  0.1988	 18.3837	  18.384	 109.995
 2200	  0.1992	 18.3912	  18.391	 110.045
 2201	  0.1992	 18.4000	  18.400	 110.095
 2202	  0.1988	 18.4088	  18.409	 110.145
 2203	  0.1988	 18.4175	  18.417	 110.195
 2204	  0.2000	 18.4250	  18.425	 110.245
 2205	  0.2000	 18.4338	  18.434	 110.295
 2206	  0.1992	 18.4425	  18.442	 110.345
 2207	  0.1996	 18.4500	  18.450	 110.395
 2208	  0.1992	 18.4587	  18.459	 110.445
 2209	  0.1992	 18.4675	  18.467	 110.495
 2210	  0.1996	 18.4750	  18.475	 110.545
 2211	  0.1996	 18.4837	  18.484	 110.595
 2212	  0.2000	 18.4925	  18.493	 110.645
 2213	  0.1996	 18.5012	  18.501	 110.695
 2214	  0.2000	 18.5087	  18.509	 110.745
 2215	  0.1996	 18.5175	  18.517	 110.795
 2216	  0.1992	 18.5262	  18.526	 110.845
 2217	  0.1992	 18.5338	  18.534	 110.895
 2218	  0.1992	 18.5425	  18.542	 110.945
 2219	  0.2000	 18.5513	  18.551	 110.995
 2220	  0.1992	 18.5600	  18.560	 111.045
 2221	  0.2000	 18.5675	  18.567	 111.095
 2222	  0.1996	 18.5763	  18.576	 111.145
 2223	  0.1996	 18.5850	  18.585	 111.195
 2224	  0.1996	 18.5925	  18.592	 111.245
 2225	  0.1996	 18.6012	  18.601	 111.295
 2226	  0.1992	 18.6100	  18.610	 111.345
 2227	  0.2000	 18.6175	  18.618	 111.395
 2228	  0.1996	 18.6262	  18.626	 111.445
 2229	  0.1996	 18.6350	  18.635	 111.495
 2230	  0.1996	 18.6437	  18.644	 111.545
 2231	  0.2000	 18.6512	  18.651	 111.595
 2232	  0.1992	 18.6600	  18.660	 111.645
 2233	  0.2000	 18.6687	  18.669	 111.695
 2234	  0.2000	 18.6775	  18.677	 111.745
 2235	  0.2004	 18.6850	  18.685	 111.795
 2236	  0.2004	 18.6938	  18.694	 111.845
 2237	  0.2004	 18.7025	  18.702	 111.895
 2238	  0.2000	 18.7113	  18.711	 111.945
 2239	  0.2000	 18.7188	  18.719	 111.995
 2240	  0.2000	 18.7275	  18.727	 112.045
 2241	  0.2000	 18.7350	  18.735	 112.095
 2242	  0.2000	 18.7437	  18.744	 112.145
 2243	  0.2008	 18.7525	  18.753	 112.195
 2244	  0.2004	 18.7612	  18.761	 112.245
 2245	  0.2004	 18.7687	  18.769	 112.295
 2246	  0.2008	 18.7775	  18.778	 112.345
 2247	  0.2004	 18.7862	  18.786	 112.395
 2248	  0.2004	 18.7950	  18.795	 112.445
 2249	  0.2004	 18.8025	  18.802	 112.495
 2250	  0.2000	 18.8112	  18.811	 112.545
 2251	  0.2004	 18.8200	  18.820	 112.595
 2252	  0.2004	 18.8275	  18.827	 112.645
 2253	  0.2000	 18.8363	  18.836	 112.695
 2254	  0.2004	 18.8450	  18.845	 112.745
 2255	  0.2000	 18.8538	  18.854	 112.795
 2256	  0.1996	 18.8612	  18.861	 112.845
 2257	  0.2004	 18.8700	  18.870	 112.895
 2258	  0.2004	 18.8787	  18.879	 112.945
 2259	  0.2000	 18.8875	  18.887	 112.995
 2260	  0.2004	 18.8950	  18.895	 113.045
 2261	  0.2000	 18.9037	  18.904	 113.095
 2262	  0.2008	 18.9125	  18.913	 113.145
 2263	  0.2012	 18.9200	  18.920	 113.195
 2264	  0.2008	 18.9287	  18.929	 113.245
 2265	  0.2008	 18.9375	  18.938	 113.295
 2266	  0.2008	 18.9450	  18.945	 113.345
 2267	  0.2008	 18.9537	  18.954	 113.395
 2268	  0.2004	 18.9625	  18.962	 113.445
 2269	  0.2008	 18.9712	  18.971	 113.495
 2270	  0.2008	 18.9788	  18.979	 113.545
 2271	  0.2012	 18.9875	  18.987	 113.595
 2272	  0.2012	 18.9963	  18.996	 113.645
 2273	  0.2012	 19.0037	  19.004	 113.695
 2274	  0.2008	 19.0125	  19.012	 113.745
 2275	  0.2012	 19.0212	  19.021	 113.795
 2276	  0.2008	 19.0287	  19.029	 113.845
 2277	  0.2012	 19.0375	  19.038	 113.895
 2278	  0.2016	 19.0462	  19.046	 113.945
 2279	  0.2012	 19.0550	  19.055	 113.995
 2280	  0.2008	 19.0625	  19.062	 114.045
 2281	  0.2008	 19.0712	  19.071	 114.095
 2282	  0.2004	 19.0800	  19.080	 114.145
 2283	  0.2012	 19.0887	  19.089	 114.195
 2284	  0.2012	 19.0962	  19.096	 114.245
 2285	  0.2008	 19.1050	  19.105	 114.295
 2286	  0.2016	 19.1138	  19.114	 114.345
 2287	  0.2008	 19.1225	  19.122	 114.395
 2288	  0.2008	 19.1300	  19.130	 114.445
 2289	  0.2004	 19.1388	  19.139	 114.495
 2290	  0.2012	 19.1475	  19.147	 114.545
 2291	  0.2004	 19.1550	  19.155	 114.595
 2292	  0.2012	 19.1637	  19.164	 114.645
 2293	  0.2012	 19.1725	  19.172	 114.695
 2294	  0.2012	 19.1812	  19.181	 114.745
 2295	  0.2012	 19.1887	  19.189	 114.795
 2296	  0.2004	 19.1975	  19.198	 114.845
 2297	  0.2000	 19.2062	  19.206	 114.895
 2298	  0.2012	 19.2150	  19.215	 114.945
 2299	  0.2016	 19.2225	  19.222	 114.995
 2300	  0.2012	 19.2312	  19.231	 115.045
 2301	  0.2016	 19.2400	  19.240	 115.095
 2302	  0.2016	 19.2475	  19.247	 115.145
 2303	  0.2016	 19.2563	  19.256	 115.195
 2304	  0.2004	 19.2650	  19.265	 115.245
 2305	  0.2012	 19.2725	  19.272	 115.295
 2306	  0.2012	 19.2812	  19.281	 115.345
 2307	  0.2016	 19.2900	  19.290	 115.395
 2308	  0.2012	 19.2975	  19.297	 115.445
 2309	  0.2008	 19.3062	  19.306	 115.495
 2310	  0.2008	 19.3150	  19.315	 115.545
 2311	  0.2012	 19.3225	  19.323	 115.595
 2312	  0.2016	 19.3312	  19.331	 115.645
 2313	  0.2016	 19.3400	  19.340	 115.695
 2314	  0.2012	 19.3487	  19.349	 115.745
 2315	  0.2020	 19.3562	  19.356	 115.795
 2316	  0.2020	 19.3650	  19.365	 115.845
 2317	  0.2020	 19.3737	  19.374	 115.895
 2318	  0.2020	 19.3825	  19.382	 115.945
 2319	  0.2020	 19.3900	  19.390	 115.995
 2320	  0.2024	 19.3988	  19.399	 116.045
 2321	  0.2024	 19.4075	  19.407	 116.095
 2322	  0.2016	 19.4150	  19.415	 116.145
 2323	  0.2016	 19.4237	  19.424	 116.195
 2324	  0.2020	 19.4325	  19.432	 116.245
 2325	  0.2024	 19.4400	  19.440	 116.295
 2326	  0.2024	 19.4487	  19.449	 116.345
 2327	  0.2020	 19.4575	  19.458	 116.395
 2328	  0.2016	 19.4650	  19.465	 116.445
 2329	  0.2020	 19.4737	  19.474	 116.495
 2330	  0.2020	 19.4825	  19.483	 116.545
 2331	  0.2020	 19.4912	  19.491	 116.595
 2332	  0.2020	 19.4987	  19.499	 116.645
 2333	  0.2020	 19.5075	  19.507	 116.695
 2334	  0.2024	 19.5162	  19.516	 116.745
 2335	  0.2020	 19.5238	  19.524	 116.795
 2336	  0.2028	 19.5325	  19.532	 116.845
 2337	  0.2024	 19.5413	  19.541	 116.895
 2338	  0.2020	 19.5487	  19.549	 116.945
 2339	  0.2028	 19.5575	  19.557	 116.995
 2340	  0.2028	 19.5662	  19.566	 117.045
 2341	  0.2032	 19.5737	  19.574	 117.095
 2342	  0.2028	 19.5825	  19.583	 117.145
 2343	  0.2032	 19.5912	  19.591	 117.195
 2344	  0.2028	 19.5987	  19.599	 117.245
 2345	  0.2024	 19.6075	  19.608	 117.295
 2346	  0.2028	 19.6162	  19.616	 117.345
 2347	  0.2028	 19.6250	  19.625	 117.395
 2348	  0.2032	 19.6325	  19.632	 117.445
 2349	  0.2024	 19.6412	  19.641	 117.495
 2350	  0.2024	 19.6500	  19.650	 117.545
 2351	  0.2024	 19.6575	  19.657	 117.595
 2352	  0.2028	 19.6663	  19.666	 117.645
 2353	  0.2028	 19.6750	  19.675	 117.695
 2354	  0.2028	 19.6838	  19.684	 117.745
 2355	  0.2024	 19.6912	  19.691	 117.795
 2356	  0.2020	 19.7000	  19.700	 117.845
 2357	  0.2032	 19.7087	  19.709	 117.895
 2358	  0.2032	 19.7162	  19.716	 117.945
 2359	  0.2032	 19.7250	  19.725	 117.995
 2360	  0.2024	 19.7337	  19.734	 118.045
 2361	  0.2028	 19.7412	  19.741	 118.095
 2362	  0.2024	 19.7500	  19.750	 118.145
 2363	  0.2028	 19.7587	  19.759	 118.195
 2364	  0.2032	 19.7662	  19.766	 118.245
 2365	  0.2032	 19.7750	  19.775	 118.295
 2366	  0.2028	 19.7837	  19.784	 118.345
 2367	  0.2032	 19.7913	  19.791	 118.395
 2368	  0.2028	 19.8000	  19.800	 118.445
 2369	  0.2028	 19.8088	  19.809	 118.495
 2370	  0.2036	 19.8162	  19.816	 118.545
 2371	  0.2036	 19.8250	  19.825	 118.595
 2372	  0.2032	 19.8337	  19.834	 118.645
 2373	  0.2032	 19.8412	  19.841	 118.695
 2374	  0.2032	 19.8500	  19.850	 118.745
 2375	  0.2036	 19.8587	  19.859	 118.795
 2376	  0.2040	 19.8662	  19.866	 118.845
 2377	  0.2040	 19.8737	  19.874	 118.895
 2378	  0.2036	 19.8825	  19.882	 118.945
 2379	  0.2032	 19.8912	  19.891	 118.995
 2380	  0.2040	 19.8988	  19.899	 119.045
 2381	  0.2028	 19.9075	  19.907	 119.095
 2382	  0.2032	 19.9163	  19.916	 119.145
 2383	  0.2028	 19.9237	  19.924	 119.195
 2384	  0.2028	 19.9325	  19.932	 119.245
 2385	  0.2032	 19.9412	  19.941	 119.295
 2386	  0.2028	 19.9500	  19.950	 119.345
 2387	  0.2032	 19.9575	  19.958	 119.395
 2388	  0.2040	 19.9662	  19.966	 119.445
 2389	  0.2036	 19.9750	  19.975	 119.495
 2390	  0.2040	 19.9825	  19.983	 119.545
 2391	  0.2040	 19.9912	  19.991	 119.595
 2392	  0.2036	 20.0000	  20.000	 119.645
 2393	  0.2040	 20.0075	  20.007	 119.695
 2394	  0.2040	 20.0162	  20.016	 119.745
 2395	  0.2040	 20.0250	  20.025	 119.795
 2396	  0.2036	 20.0325	  20.032	 119.845
 2397	  0.2044	 20.0413	  20.041	 119.895
 2398	  0.2040	 20.0500	  20.050	 119.945
 2399	  0.2040	 20.0575	  20.057	 119.995
 2400	  0.2044	 20.0662	  20.066	 120.045
 2401	  0.2044	 20.0750	  20.075	 120.095
 2402	  0.2044	 20.0825	  20.083	 120.145
 2403	  0.2036	 20.0912	  20.091	 120.195
 2404	  0.2040	 20.1000	  20.100	 120.245
 2405	  0.2048	 20.1075	  20.108	 120.295
 2406	  0.2048	 20.1162	  20.116	 120.345
 2407	  0.2044	 20.1250	  20.125	 120.395
 2408	  0.2040	 20.1325	  20.132	 120.445
 2409	  0.2048	 20.1412	  20.141	 120.495
 2410	  0.2048	 20.1500	  20.150	 120.545
 2411	  0.2044	 20.1575	  20.157	 120.595
 2412	  0.2040	 20.1663	  20.166	 120.645
 2413	  0.2048	 20.1750	  20.175	 120.695
 2414	  0.2044	 20.1838	  20.184	 120.745
 2415	  0.2048	 20.1912	  20.191	 120.795
 2416	  0.2052	 20.2000	  20.200	 120.845
 2417	  0.2048	 20.2087	  20.209	 120.895
 2418	  0.2052	 20.2175	  20.217	 120.945
 2419	  0.2048	 20.2250	  20.225	 120.995
 2420	  0.2048	 20.2337	  20.234	 121.045
 2421	  0.2052	 20.2412	  20.241	 121.095
 2422	  0.2044	 20.2500	  20.250	 121.145
 2423	  0.2048	 20.2587	  20.259	 121.195
 2424	  0.2052	 20.2662	  20.266	 121.245
 2425	  0.2052	 20.2750	  20.275	 121.295
 2426	  0.2048	 20.2837	  20.284	 121.345
 2427	  0.2052	 20.2913	  20.291	 121.395
 2428	  0.2048	 20.3000	  20.300	 121.445
 2429	  0.2048	 20.3088	  20.309	 121.495
 2430	  0.2044	 20.3162	  20.316	 121.545
 2431	  0.2044	 20.3250	  20.325	 121.595
 2432	  0.2052	 20.3337	  20.334	 121.645
 2433	  0.2052	 20.3425	  20.342	 121.695
 2434	  0.2052	 20.3500	  20.350	 121.745
 2435	  0.2056	 20.3587	  20.359	 121.795
 2436	  0.2044	 20.3675	  20.368	 121.845
 2437	  0.2048	 20.3750	  20.375	 121.895
 2438	  0.2052	 20.3837	  20.384	 121.945
 2439	  0.2052	 20.3925	  20.392	 121.995
 2440	  0.2056	 20.4000	  20.400	 122.045
 2441	  0.2052	 20.4087	  20.409	 122.095
 2442	  0.2056	 20.4163	  20.416	 122.145
 2443	  0.2052	 20.4250	  20.425	 122.195
 2444	  0.2056	 20.4338	  20.434	 122.245
 2445	  0.2056	 20.4412	  20.441	 122.295
 2446	  0.2052	 20.4500	  20.450	 122.345
 2447	  0.2056	 20.4587	  20.459	 122.395
 2448	  0.2052	 20.4675	  20.467	 122.445
 2449	  0.2060	 20.4750	  20.475	 122.495
 2450	  0.2060	 20.4837	  20.484	 122.545
 2451	  0.2060	 20.4925	  20.493	 122.595
 2452	  0.2056	 20.5000	  20.500	 122.645
 2453	  0.2056	 20.5087	  20.509	 122.695
 2454	  0.2056	 20.5175	  20.517	 122.745
 2455	  0.2060	 20.5250	  20.525	 122.795
 2456	  0.2056	 20.5337	  20.534	 122.845
 2457	  0.2056	 20.5425	  20.542	 122.895
 2458	  0.2056	 20.5500	  20.550	 122.945
 2459	  0.2060	 20.5588	  20.559	 122.995
 2460	  0.2060	 20.5675	  20.567	 123.045
 2461	  0.2060	 20.5750	  20.575	 123.095
 2462	  0.2056	 20.5837	  20.584	 123.145
 2463	  0.2060	 20.5925	  20.592	 123.195
 2464	  0.2056	 20.6000	  20.600	 123.245
 2465	  0.2064	 20.6087	  20.609	 123.295
 2466	  0.2064	 20.6175	  20.618	 123.345
 2467	  0.2064	 20.6250	  20.625	 123.395
 2468	  0.2064	 20.6337	  20.634	 123.445
 2469	  0.2064	 20.6425	  20.642	 123.495
 2470	  0.2056	 20.6500	  20.650	 123.545
 2471	  0.2064	 20.6587	  20.659	 123.595
 2472	  0.2060	 20.6675	  20.667	 123.645
 2473	  0.2068	 20.6750	  20.675	 123.695
 2474	  0.2068	 20.6838	  20.684	 123.745
 2475	  0.2068	 20.6925	  20.692	 123.795
 2476	  0.2064	 20.7000	  20.700	 123.845
 2477	  0.2068	 20.7087	  20.709	 123.895
 2478	  0.2068	 20.7175	  20.717	 123.945
 2479	  0.2064	 20.7250	  20.725	 123.995
 2480	  0.2068	 20.7337	  20.734	 124.045
 2481	  0.2064	 20.7425	  20.743	 124.095
 2482	  0.2068	 20.7500	  20.750	 124.145
 2483	  0.2068	 20.7587	  20.759	 124.195
 2484	  0.2072	 20.7675	  20.767	 124.245
 2485	  0.2076	 20.7750	  20.775	 124.295
 2486	  0.2072	 20.7837	  20.784	 124.345
 2487	  0.2072	 20.7925	  20.792	 124.395
 2488	  0.2072	 20.8000	  20.800	 124.445
 2489	  0.2068	 20.8088	  20.809	 124.495
 2490	  0.2072	 20.8175	  20.817	 124.545
 2491	  0.2072	 20.8250	  20.825	 124.595
 2492	  0.2068	 20.8337	  20.834	 124.645
 2493	  0.2072	 20.8425	  20.842	 124.695
 2494	  0.2068	 20.8500	  20.850	 124.745
 2495	  0.2072	 20.8587	  20.859	 124.795
 2496	  0.2072	 20.8662	  20.866	 124.845
 2497	  0.2076	 20.8750	  20.875	 124.895
 2498	  0.2068	 20.8837	  20.884	 124.945
 2499	  0.2072	 20.8925	  20.892	 124.995
 2500	  0.2072	 20.9000	  20.900	 125.045
 2501	  0.2068	 20.9087	  20.909	 125.095
 2502	  0.2064	 20.9175	  20.917	 125.145
 2503	  0.2072	 20.9250	  20.925	 125.195
 2504	  0.2076	 20.9338	  20.934	 125.245
 2505	  0.2068	 20.9425	  20.942	 125.295
 2506	  0.2072	 20.9500	  20.950	 125.345
 2507	  0.2080	 20.9587	  20.959	 125.395
 2508	  0.2072	 20.9675	  20.967	 125.445
 2509	  0.2076	 20.9750	  20.975	 125.495
 2510	  0.2076	 20.9837	  20.984	 125.545
 2511	  0.2072	 20.9925	  20.993	 125.595
 2512	  0.2072	 21.0000	  21.000	 125.645
 2513	  0.2080	 21.0087	  21.009	 125.695
 2514	  0.2080	 21.0175	  21.017	 125.745
 2515	  0.2076	 21.0250	  21.025	 125.795
 2516	  0.2080	 21.0337	  21.034	 125.845
 2517	  0.2080	 21.0425	  21.042	 125.895
 2518	  0.2084	 21.0500	  21.050	 125.945
 2519	  0.2084	 21.0588	  21.059	 125.995
 2520	  0.2076	 21.0675	  21.067	 126.045
 2521	  0.2080	 21.0750	  21.075	 126.095
 2522	  0.2080	 21.0837	  21.084	 126.145
 2523	  0.2076	 21.0925	  21.092	 126.195
 2524	  0.2076	 21.1000	  21.100	 126.245
 2525	  0.2076	 21.1087	  21.109	 126.295
 2526	  0.2076	 21.1162	  21.116	 126.345
 2527	  0.2084	 21.1250	  21.125	 126.395
 2528	  0.2080	 21.1337	  21.134	 126.445
 2529	  0.2080	 21.1412	  21.141	 126.495
 2530	  0.2076	 21.1500	  21.150	 126.545
 2531	  0.2076	 21.1587	  21.159	 126.595
 2532	  0.2080	 21.1663	  21.166	 126.645
 2533	  0.2080	 21.1750	  21.175	 126.695
 2534	  0.2080	 21.1838	  21.184	 126.745
 2535	  0.2080	 21.1925	  21.192	 126.795
 2536	  0.2084	 21.2000	  21.200	 126.845
 2537	  0.2080	 21.2087	  21.209	 126.895
 2538	  0.2080	 21.2162	  21.216	 126.945
 2539	  0.2088	 21.2250	  21.225	 126.995
 2540	  0.2080	 21.2337	  21.234	 127.045
 2541	  0.2080	 21.2412	  21.241	 127.095
 2542	  0.2084	 21.2500	  21.250	 127.145
 2543	  0.2084	 21.2587	  21.259	 127.195
 2544	  0.2080	 21.2675	  21.267	 127.245
 2545	  0.2084	 21.2750	  21.275	 127.295
 2546	  0.2080	 21.2837	  21.284	 127.345
 2547	  0.2084	 21.2925	  21.292	 127.395
 2548	  0.2084	 21.3000	  21.300	 127.445
 2549	  0.2080	 21.3088	  21.309	 127.495
 2550	  0.2088	 21.3175	  21.317	 127.545
 2551	  0.2088	 21.3250	  21.325	 127.595
 2552	  0.2088	 21.3337	  21.334	 127.645
 2553	  0.2084	 21.3425	  21.342	 127.695
 2554	  0.2092	 21.3500	  21.350	 127.745
 2555	  0.2088	 21.3587	  21.359	 127.795
 2556	  0.2084	 21.3662	  21.366	 127.845
 2557	  0.2080	 21.3750	  21.375	 127.895
 2558	  0.2076	 21.3837	  21.384	 127.945
 2559	  0.2072	 21.3912	  21.391	 127.995
 2560	  0.2084	 21.4000	  21.400	 128.045
 2561	  0.2080	 21.4075	  21.407	 128.095
 2562	  0.2084	 21.4163	  21.416	 128.145
 2563	  0.2088	 21.4250	  21.425	 128.195
 2564	  0.2088	 21.4338	  21.434	 128.245
 2565	  0.2088	 21.4412	  21.441	 128.295
 2566	  0.2084	 21.4500	  21.450	 128.345
 2567	  0.2084	 21.4587	  21.459	 128.395
 2568	  0.2092	 21.4662	  21.466	 128.445
 2569	  0.2092	 21.4750	  21.475	 128.495
 2570	  0.2088	 21.4837	  21.484	 128.545
 2571	  0.2088	 21.4912	  21.491	 128.595
 2572	  0.2092	 21.5000	  21.500	 128.645
 2573	  0.2080	 21.5087	  21.509	 128.695
 2574	  0.2084	 21.5162	  21.516	 128.745
 2575	  0.2084	 21.5250	  21.525	 128.795
 2576	  0.2084	 21.5325	  21.532	 128.845
 2577	  0.2084	 21.5413	  21.541	 128.895
 2578	  0.2092	 21.5500	  21.550	 128.945
 2579	  0.2092	 21.5588	  21.559	 128.995
 2580	  0.2096	 21.5662	  21.566	 129.045
 2581	  0.2096	 21.5750	  21.575	 129.095
 2582	  0.2092	 21.5837	  21.584	 129.145
 2583	  0.2096	 21.5912	  21.591	 129.195
 2584	  0.2096	 21.6000	  21.600	 129.245
 2585	  0.2100	 21.6087	  21.609	 129.295
 2586	  0.2100	 21.6162	  21.616	 129.345
 2587	  0.2100	 21.6250	  21.625	 129.395
 2588	  0.2096	 21.6337	  21.634	 129.445
 2589	  0.2096	 21.6412	  21.641	 129.495
 2590	  0.2092	 21.6500	  21.650	 129.545
 2591	  0.2096	 21.6575	  21.657	 129.595
 2592	  0.2092	 21.6663	  21.666	 129.645
 2593	  0.2096	 21.6750	  21.675	 129.695
 2594	  0.2096	 21.6825	  21.682	 129.745
 2595	  0.2092	 21.6912	  21.691	 129.795
 2596	  0.2096	 21.7000	  21.700	 129.845
 2597	  0.2092	 21.7075	  21.708	 129.895
 2598	  0.2092	 21.7162	  21.716	 129.945
 2599	  0.2096	 21.7250	  21.725	 129.995
 2600	  0.2096	 21.7337	  21.734	 130.045
 2601	  0.2096	 21.7412	  21.741	 130.095
 2602	  0.2100	 21.7500	  21.750	 130.145
 2603	  0.2096	 21.7587	  21.759	 130.195
 2604	  0.2104	 21.7662	  21.766	 130.245
 2605	  0.2100	 21.7750	  21.775	 130.295
 2606	  0.2096	 21.7837	  21.784	 130.345
 2607	  0.2100	 21.7913	  21.791	 130.395
 2608	  0.2100	 21.8000	  21.800	 130.445
 2609	  0.2104	 21.8075	  21.807	 130.495
 2610	  0.2104	 21.8162	  21.816	 130.545
 2611	  0.2100	 21.8250	  21.825	 130.595
 2612	  0.2100	 21.8325	  21.833	 130.645
 2613	  0.2100	 21.8412	  21.841	 130.695
 2614	  0.2100	 21.8500	  21.850	 130.745
 2615	  0.2088	 21.8575	  21.858	 130.795
 2616	  0.2092	 21.8662	  21.866	 130.845
 2617	  0.2096	 21.8750	  21.875	 130.895
 2618	  0.2100	 21.8825	  21.882	 130.945
 2619	  0.2100	 21.8912	  21.891	 130.995
 2620	  0.2100	 21.9000	  21.900	 131.045
 2621	  0.2100	 21.9075	  21.907	 131.095
 2622	  0.2096	 21.9163	  21.916	 131.145
 2623	  0.2104	 21.9250	  21.925	 131.195
 2624	  0.2096	 21.9325	  21.932	 131.245
 2625	  0.2104	 21.9412	  21.941	 131.295
 2626	  0.2104	 21.9500	  21.950	 131.345
 2627	  0.2104	 21.9575	  21.958	 131.395
 2628	  0.2100	 21.9662	  21.966	 131.445
 2629	  0.2096	 21.9750	  21.975	 131.495
 2630	  0.2096	 21.9837	  21.984	 131.545
 2631	  0.2104	 21.9912	  21.991	 131.595
 2632	  0.2104	 22.0000	  22.000	 131.645
 2633	  0.2104	 22.0087	  22.009	 131.695
 2634	  0.2104	 22.0162	  22.016	 131.745
 2635	  0.2104	 22.0250	  22.025	 131.795
 2636	  0.2104	 22.0337	  22.034	 131.845
 2637	  0.2104	 22.0413	  22.041	 131.895
 2638	  0.2100	 22.0500	  22.050	 131.945
 2639	  0.2100	 22.0575	  22.057	 131.995
 2640	  0.2100	 22.0662	  22.066	 132.045
 2641	  0.2104	 22.0750	  22.075	 132.095
 2642	  0.2100	 22.0825	  22.083	 132.145
 2643	  0.2104	 22.0912	  22.091	 132.195
 2644	  0.2108	 22.1000	  22.100	 132.245
 2645	  0.2108	 22.1075	  22.108	 132.295
 2646	  0.2108	 22.1162	  22.116	 132.345
 2647	  0.2108	 22.1237	  22.124	 132.395
 2648	  0.2112	 22.1325	  22.132	 132.445
 2649	  0.2104	 22.1412	  22.141	 132.495
 2650	  0.2108	 22.1500	  22.150	 132.545
 2651	  0.2112	 22.1575	  22.157	 132.595
 2652	  0.2108	 22.1663	  22.166	 132.645
 2653	  0.2108	 22.1750	  22.175	 132.695
 2654	  0.2112	 22.1838	  22.184	 132.745
 2655	  0.2108	 22.1912	  22.191	 132.795
 2656	  0.2108	 22.2000	  22.200	 132.845
 2657	  0.2108	 22.2087	  22.209	 132.895
 2658	  0.2116	 22.2162	  22.216	 132.945
 2659	  0.2116	 22.2250	  22.225	 132.995
 2660	  0.2108	 22.2337	  22.234	 133.045
 2661	  0.2108	 22.2425	  22.243	 133.095
 2662	  0.2112	 22.2500	  22.250	 133.145
 2663	  0.2112	 22.2587	  22.259	 133.195
 2664	  0.2112	 22.2675	  22.267	 133.245
 2665	  0.2112	 22.2750	  22.275	 133.295
 2666	  0.2112	 22.2837	  22.284	 133.345
 2667	  0.2112	 22.2925	  22.292	 133.395
 2668	  0.2116	 22.3012	  22.301	 133.445
 2669	  0.2112	 22.3088	  22.309	 133.495
 2670	  0.2112	 22.3175	  22.317	 133.545
 2671	  0.2112	 22.3263	  22.326	 133.595
 2672	  0.2108	 22.3337	  22.334	 133.645
 2673	  0.2108	 22.3425	  22.342	 133.695
 2674	  0.2116	 22.3512	  22.351	 133.745
 2675	  0.2104	 22.3587	  22.359	 133.795
 2676	  0.2112	 22.3675	  22.368	 133.845
 2677	  0.2112	 22.3762	  22.376	 133.895
 2678	  0.2116	 22.3837	  22.384	 133.945
 2679	  0.2120	 22.3925	  22.392	 133.995
 2680	  0.2120	 22.4012	  22.401	 134.045
 2681	  0.2116	 22.4100	  22.410	 134.095
 2682	  0.2116	 22.4175	  22.417	 134.145
 2683	  0.2116	 22.4262	  22.426	 134.195
 2684	  0.2108	 22.4350	  22.435	 134.245
 2685	  0.2108	 22.4425	  22.442	 134.295
 2686	  0.2108	 22.4513	  22.451	 134.345
 2687	  0.2116	 22.4600	  22.460	 134.395
 2688	  0.2112	 22.4688	  22.469	 134.445
 2689	  0.2112	 22.4762	  22.476	 134.495
 2690	  0.2108	 22.4850	  22.485	 134.545
 2691	  0.2108	 22.4937	  22.494	 134.595
 2692	  0.2116	 22.5012	  22.501	 134.645
 2693	  0.2116	 22.5100	  22.510	 134.695
 2694	  0.2124	 22.5187	  22.519	 134.745
 2695	  0.2128	 22.5275	  22.528	 134.795
 2696	  0.2120	 22.5350	  22.535	 134.845
 2697	  0.2116	 22.5437	  22.544	 134.895
 2698	  0.2124	 22.5525	  22.552	 134.945
 2699	  0.2124	 22.5612	  22.561	 134.995
 2700	  0.2124	 22.5688	  22.569	 135.045
 2701	  0.2120	 22.5775	  22.577	 135.095
 2702	  0.2120	 22.5863	  22.586	 135.145
 2703	  0.2120	 22.5938	  22.594	 135.195
 2704	  0.2116	 22.6025	  22.602	 135.245
 2705	  0.2120	 22.6112	  22.611	 135.295
 2706	  0.2128	 22.6187	  22.619	 135.345
 2707	  0.2128	 22.6275	  22.627	 135.395
 2708	  0.2128	 22.6350	  22.635	 135.445
 2709	  0.2120	 22.6437	  22.644	 135.495
 2710	  0.2120	 22.6512	  22.651	 135.545
 2711	  0.2124	 22.6600	  22.660	 135.595
 2712	  0.2128	 22.6687	  22.669	 135.645
 2713	  0.2128	 22.6775	  22.677	 135.695
 2714	  0.2128	 22.6850	  22.685	 135.745
 2715	  0.2124	 22.6938	  22.694	 135.795
 2716	  0.2128	 22.7025	  22.702	 135.845
 2717	  0.2120	 22.7100	  22.710	 135.895
 2718	  0.2124	 22.7188	  22.719	 135.945
 2719	  0.2120	 22.7275	  22.727	 135.995
 2720	  0.2120	 22.7350	  22.735	 136.045
 2721	  0.2124	 22.7437	  22.744	 136.095
 2722	  0.2124	 22.7525	  22.752	 136.145
 2723	  0.2124	 22.7612	  22.761	 136.195
 2724	  0.2124	 22.7687	  22.769	 136.245
 2725	  0.2120	 22.7775	  22.778	 136.295
 2726	  0.2124	 22.7862	  22.786	 136.345
 2727	  0.2124	 22.7950	  22.795	 136.395
 2728	  0.2132	 22.8025	  22.802	 136.445
 2729	  0.2132	 22.8112	  22.811	 136.495
 2730	  0.2132	 22.8200	  22.820	 136.545
 2731	  0.2136	 22.8287	  22.829	 136.595
 2732	  0.2136	 22.8363	  22.836	 136.645
 2733	  0.2132	 22.8450	  22.845	 136.695
 2734	  0.2132	 22.8538	  22.854	 136.745
 2735	  0.2132	 22.8625	  22.862	 136.795
 2736	  0.2128	 22.8700	  22.870	 136.845
 2737	  0.2128	 22.8787	  22.879	 136.895
 2738	  0.2128	 22.8875	  22.887	 136.945
 2739	  0.2128	 22.8950	  22.895	 136.995
 2740	  0.2132	 22.9037	  22.904	 137.045
 2741	  0.2136	 22.9112	  22.911	 137.095
 2742	  0.2132	 22.9200	  22.920	 137.145
 2743	  0.2132	 22.9287	  22.929	 137.195
 2744	  0.2140	 22.9375	  22.938	 137.245
 2745	  0.2132	 22.9450	  22.945	 137.295
 2746	  0.2136	 22.9537	  22.954	 137.345
 2747	  0.2136	 22.9625	  22.962	 137.395
 2748	  0.2136	 22.9712	  22.971	 137.445
 2749	  0.2136	 22.9788	  22.979	 137.495
 2750	  0.2132	 22.9875	  22.987	 137.545
 2751	  0.2136	 22.9963	  22.996	 137.595
 2752	  0.2140	 23.0037	  23.004	 137.645
 2753	  0.2140	 23.0125	  23.012	 137.695
 2754	  0.2136	 23.0212	  23.021	 137.745
 2755	  0.2136	 23.0300	  23.030	 137.795
 2756	  0.2136	 23.0375	  23.038	 137.845
 2757	  0.2140	 23.0462	  23.046	 137.895
 2758	  0.2136	 23.0550	  23.055	 137.945
 2759	  0.2140	 23.0625	  23.062	 137.995
 2760	  0.2140	 23.0712	  23.071	 138.045
 2761	  0.2132	 23.0800	  23.080	 138.095
 2762	  0.2128	 23.0887	  23.089	 138.145
 2763	  0.2132	 23.0962	  23.096	 138.195
 2764	  0.2136	 23.1050	  23.105	 138.245
 2765	  0.2128	 23.1137	  23.114	 138.295
 2766	  0.2132	 23.1213	  23.121	 138.345
 2767	  0.2136	 23.1300	  23.130	 138.395
 2768	  0.2140	 23.1388	  23.139	 138.445
 2769	  0.2132	 23.1475	  23.147	 138.495
 2770	  0.2136	 23.1550	  23.155	 138.545
 2771	  0.2132	 23.1637	  23.164	 138.595
 2772	  0.2132	 23.1725	  23.172	 138.645
 2773	  0.2132	 23.1800	  23.180	 138.695
 2774	  0.2136	 23.1887	  23.189	 138.745
 2775	  0.2136	 23.1975	  23.198	 138.795
 2776	  0.2136	 23.2050	  23.205	 138.845
 2777	  0.2140	 23.2137	  23.214	 138.895
 2778	  0.2140	 23.2225	  23.222	 138.945
 2779	  0.2140	 23.2312	  23.231	 138.995
 2780	  0.2140	 23.2387	  23.239	 139.045
 2781	  0.2140	 23.2475	  23.247	 139.095
 2782	  0.2136	 23.2563	  23.256	 139.145
 2783	  0.2140	 23.2638	  23.264	 139.195
 2784	  0.2144	 23.2725	  23.272	 139.245
 2785	  0.2140	 23.2812	  23.281	 139.295
 2786	  0.2136	 23.2887	  23.289	 139.345
 2787	  0.2136	 23.2975	  23.297	 139.395
 2788	  0.2144	 23.3062	  23.306	 139.445
 2789	  0.2148	 23.3150	  23.315	 139.495
 2790	  0.2140	 23.3225	  23.323	 139.545
 2791	  0.2144	 23.3312	  23.331	 139.595
 2792	  0.2144	 23.3400	  23.340	 139.645
 2793	  0.2144	 23.3475	  23.347	 139.695
 2794	  0.2144	 23.3562	  23.356	 139.745
 2795	  0.2136	 23.3650	  23.365	 139.795
 2796	  0.2132	 23.3725	  23.372	 139.845
 2797	  0.2132	 23.3813	  23.381	 139.895
 2798	  0.2136	 23.3900	  23.390	 139.945
 2799	  0.2136	 23.3988	  23.399	 139.995
 2800	  0.2136	 23.4062	  23.406	 140.045
 2801	  0.2144	 23.4150	  23.415	 140.095
 2802	  0.2144	 23.4237	  23.424	 140.145
 2803	  0.2144	 23.4312	  23.431	 140.195
 2804	  0.2144	 23.4400	  23.440	 140.245
 2805	  0.2148	 23.4487	  23.449	 140.295
 2806	  0.2144	 23.4562	  23.456	 140.345
 2807	  0.2144	 23.4650	  23.465	 140.395
 2808	  0.2148	 23.4737	  23.474	 140.445
 2809	  0.2144	 23.4812	  23.481	 140.495
 2810	  0.2140	 23.4900	  23.490	 140.545
 2811	  0.2148	 23.4987	  23.499	 140.595
 2812	  0.2144	 23.5063	  23.506	 140.645
 2813	  0.2148	 23.5150	  23.515	 140.695
 2814	  0.2148	 23.5238	  23.524	 140.745
 2815	  0.2136	 23.5312	  23.531	 140.795
 2816	  0.2136	 23.5400	  23.540	 140.845
 2817	  0.2140	 23.5487	  23.549	 140.895
 2818	  0.2148	 23.5575	  23.557	 140.945
 2819	  0.2140	 23.5650	  23.565	 140.995
 2820	  0.2144	 23.5737	  23.574	 141.045
 2821	  0.2144	 23.5825	  23.582	 141.095
 2822	  0.2148	 23.5900	  23.590	 141.145
 2823	  0.2152	 23.5987	  23.599	 141.195
 2824	  0.2148	 23.6075	  23.608	 141.245
 2825	  0.2148	 23.6150	  23.615	 141.295
 2826	  0.2140	 23.6237	  23.624	 141.345
 2827	  0.2144	 23.6325	  23.632	 141.395
 2828	  0.2148	 23.6400	  23.640	 141.445
 2829	  0.2144	 23.6488	  23.649	 141.495
 2830	  0.2148	 23.6575	  23.657	 141.545
 2831	  0.2144	 23.6663	  23.666	 141.595
 2832	  0.2144	 23.6737	  23.674	 141.645
 2833	  0.2152	 23.6825	  23.682	 141.695
 2834	  0.2152	 23.6912	  23.691	 141.745
 2835	  0.2152	 23.6987	  23.699	 141.795
 2836	  0.2152	 23.7075	  23.707	 141.845
 2837	  0.2152	 23.7162	  23.716	 141.895
 2838	  0.2152	 23.7237	  23.724	 141.945
 2839	  0.2148	 23.7325	  23.733	 141.995
 2840	  0.2148	 23.7412	  23.741	 142.045
 2841	  0.2152	 23.7487	  23.749	 142.095
 2842	  0.2152	 23.7575	  23.757	 142.145
 2843	  0.2156	 23.7662	  23.766	 142.195
 2844	  0.2152	 23.7738	  23.774	 142.245
 2845	  0.2152	 23.7825	  23.782	 142.295
 2846	  0.2156	 23.7913	  23.791	 142.345
 2847	  0.2152	 23.7987	  23.799	 142.395
 2848	  0.2152	 23.8075	  23.807	 142.445
 2849	  0.2164	 23.8162	  23.816	 142.495
 2850	  0.2164	 23.8250	  23.825	 142.545
 2851	  0.2160	 23.8325	  23.832	 142.595
 2852	  0.2152	 23.8412	  23.841	 142.645
 2853	  0.2156	 23.8500	  23.850	 142.695
 2854	  0.2164	 23.8575	  23.858	 142.745
 2855	  0.2160	 23.8662	  23.866	 142.795
 2856	  0.2164	 23.8750	  23.875	 142.845
 2857	  0.2164	 23.8825	  23.882	 142.895
 2858	  0.2156	 23.8912	  23.891	 142.945
 2859	  0.2152	 23.9000	  23.900	 142.995
 2860	  0.2160	 23.9087	  23.909	 143.045
 2861	  0.2160	 23.9163	  23.916	 143.095
 2862	  0.2168	 23.9250	  23.925	 143.145
 2863	  0.2164	 23.9338	  23.934	 143.195
 2864	  0.2164	 23.9412	  23.941	 143.245
 2865	  0.2164	 23.9500	  23.950	 143.295
 2866	  0.2164	 23.9587	  23.959	 143.345
 2867	  0.2164	 23.9662	  23.966	 143.395
 2868	  0.2164	 23.9750	  23.975	 143.445
 2869	  0.2164	 23.9837	  23.984	 143.495
 2870	  0.2164	 23.9912	  23.991	 143.545
 2871	  0.2160	 24.0000	  24.000	 143.595
 2872	  0.2160	 24.0087	  24.009	 143.645
 2873	  0.2160	 24.0162	  24.016	 143.695
 2874	  0.2160	 24.0250	  24.025	 143.745
 2875	  0.2160	 24.0337	  24.034	 143.795
 2876	  0.2160	 24.0413	  24.041	 143.845
 2877	  0.2164	 24.0500	  24.050	 143.895
 2878	  0.2156	 24.0588	  24.059	 143.945
 2879	  0.2156	 24.0675	  24.067	 143.995
 2880	  0.2156	 24.0750	  24.075	 144.045
 2881	  0.2156	 24.0837	  24.084	 144.095
 2882	  0.2156	 24.0925	  24.092	 144.145
 2883	  0.2160	 24.1012	  24.101	 144.195
 2884	  0.2156	 24.1087	  24.109	 144.245
 2885	  0.2160	 24.1175	  24.118	 144.295
 2886	  0.2160	 24.1262	  24.126	 144.345
 2887	  0.2160	 24.1337	  24.134	 144.395
 2888	  0.2160	 24.1425	  24.142	 144.445
 2889	  0.2156	 24.1512	  24.151	 144.495
 2890	  0.2156	 24.1587	  24.159	 144.545
 2891	  0.2164	 24.1675	  24.167	 144.595
 2892	  0.2164	 24.1762	  24.176	 144.645
 2893	  0.2168	 24.1838	  24.184	 144.695
 2894	  0.2168	 24.1925	  24.192	 144.745
 2895	  0.2168	 24.2013	  24.201	 144.795
 2896	  0.2168	 24.2087	  24.209	 144.845
 2897	  0.2164	 24.2175	  24.217	 144.895
 2898	  0.2164	 24.2262	  24.226	 144.945
 2899	  0.2168	 24.2337	  24.234	 144.995
 2900	  0.2168	 24.2425	  24.243	 145.045
 2901	  0.2168	 24.2512	  24.251	 145.095
 2902	  0.2168	 24.2587	  24.259	 145.145
 2903	  0.2168	 24.2675	  24.267	 145.195
 2904	  0.2164	 24.2762	  24.276	 145.245
 2905	  0.2164	 24.2837	  24.284	 145.295
 2906	  0.2168	 24.2925	  24.292	 145.345
 2907	  0.2164	 24.3012	  24.301	 145.395
 2908	  0.2168	 24.3088	  24.309	 145.445
 2909	  0.2168	 24.3175	  24.317	 145.495
 2910	  0.2168	 24.3263	  24.326	 145.545
 2911	  0.2172	 24.3350	  24.335	 145.595
 2912	  0.2168	 24.3425	  24.342	 145.645
 2913	  0.2176	 24.3512	  24.351	 145.695
 2914	  0.2176	 24.3600	  24.360	 145.745
 2915	  0.2172	 24.3687	  24.369	 145.795
 2916	  0.2172	 24.3762	  24.376	 145.845
 2917	  0.2176	 24.3850	  24.385	 145.895
 2918	  0.2180	 24.3925	  24.392	 145.945
 2919	  0.2180	 24.4012	  24.401	 145.995
 2920	  0.2176	 24.4100	  24.410	 146.045
 2921	  0.2176	 24.4175	  24.417	 146.095
 2922	  0.2176	 24.4262	  24.426	 146.145
 2923	  0.2176	 24.4350	  24.435	 146.195
 2924	  0.2176	 24.4425	  24.442	 146.245
 2925	  0.2172	 24.4513	  24.451	 146.295
 2926	  0.2172	 24.4600	  24.460	 146.345
 2927	  0.2172	 24.4688	  24.469	 146.395
 2928	  0.2176	 24.4762	  24.476	 146.445
 2929	  0.2168	 24.4850	  24.485	 146.495
 2930	  0.2172	 24.4937	  24.494	 146.545
 2931	  0.2172	 24.5012	  24.501	 146.595
 2932	  0.2168	 24.5100	  24.510	 146.645
 2933	  0.2172	 24.5187	  24.519	 146.695
 2934	  0.2172	 24.5262	  24.526	 146.745
 2935	  0.2176	 24.5350	  24.535	 146.795
 2936	  0.2168	 24.5425	  24.542	 146.845
 2937	  0.2168	 24.5512	  24.551	 146.895
 2938	  0.2168	 24.5600	  24.560	 146.945
 2939	  0.2168	 24.5688	  24.569	 146.995
 2940	  0.2172	 24.5763	  24.576	 147.045
 2941	  0.2168	 24.5850	  24.585	 147.095
 2942	  0.2172	 24.5925	  24.592	 147.145
 2943	  0.2176	 24.6012	  24.601	 147.195
 2944	  0.2168	 24.6100	  24.610	 147.245
 2945	  0.2172	 24.6187	  24.619	 147.295
 2946	  0.2168	 24.6262	  24.626	 147.345
 2947	  0.2168	 24.6350	  24.635	 147.395
 2948	  0.2168	 24.6437	  24.644	 147.445
 2949	  0.2164	 24.6512	  24.651	 147.495
 2950	  0.2164	 24.6600	  24.660	 147.545
 2951	  0.2172	 24.6687	  24.669	 147.595
 2952	  0.2172	 24.6762	  24.676	 147.645
 2953	  0.2168	 24.6850	  24.685	 147.695
 2954	  0.2176	 24.6925	  24.692	 147.745
 2955	  0.2168	 24.7013	  24.701	 147.795
 2956	  0.2164	 24.7100	  24.710	 147.845
 2957	  0.2164	 24.7175	  24.717	 147.895
 2958	  0.2172	 24.7262	  24.726	 147.945
 2959	  0.2172	 24.7350	  24.735	 147.995
 2960	  0.2168	 24.7425	  24.743	 148.045
 2961	  0.2168	 24.7512	  24.751	 148.095
 2962	  0.2168	 24.7600	  24.760	 148.145
 2963	  0.2172	 24.7687	  24.769	 148.195
 2964	  0.2180	 24.7762	  24.776	 148.245
 2965	  0.2172	 24.7850	  24.785	 148.295
 2966	  0.2172	 24.7925	  24.792	 148.345
 2967	  0.2172	 24.8012	  24.801	 148.395
 2968	  0.2176	 24.8100	  24.810	 148.445
 2969	  0.2176	 24.8188	  24.819	 148.495
 2970	  0.2184	 24.8263	  24.826	 148.545
 2971	  0.2180	 24.8350	  24.835	 148.595
 2972	  0.2184	 24.8425	  24.842	 148.645
 2973	  0.2180	 24.8512	  24.851	 148.695
 2974	  0.2184	 24.8600	  24.860	 148.745
 2975	  0.2180	 24.8675	  24.868	 148.795
 2976	  0.2180	 24.8762	  24.876	 148.845
 2977	  0.2176	 24.8850	  24.885	 148.895
 2978	  0.2172	 24.8925	  24.892	 148.945
 2979	  0.2176	 24.9012	  24.901	 148.995
 2980	  0.2176	 24.9100	  24.910	 149.045
 2981	  0.2172	 24.9187	  24.919	 149.095
 2982	  0.2176	 24.9262	  24.926	 149.145
 2983	  0.2172	 24.9350	  24.935	 149.195
 2984	  0.2176	 24.9425	  24.942	 149.245
 2985	  0.2172	 24.9513	  24.951	 149.295
 2986	  0.2168	 24.9600	  24.960	 149.345
 2987	  0.2172	 24.9675	  24.967	 149.395
 2988	  0.2172	 24.9762	  24.976	 149.445
 2989	  0.2168	 24.9850	  24.985	 149.495
 2990	  0.2172	 24.9925	  24.993	 149.545
 2991	  0.2176	 25.0012	  25.001	 149.595
 2992	  0.2172	 25.0100	  25.010	 149.645
 2993	  0.2176	 25.0175	  25.017	 149.695
 2994	  0.2176	 25.0262	  25.026	 149.745
 2995	  0.2168	 25.0350	  25.035	 149.795
 2996	  0.2168	 25.0425	  25.042	 149.845
 2997	  0.2168	 25.0512	  25.051	 149.895
 2998	  0.2172	 25.0600	  25.060	 149.945
 2999	  0.2176	 25.0688	  25.069	 149.995
 3000	  0.2180	 25.0763	  25.076	 150.045
 3001	  0.2172	 25.0850	  25.085	 150.095
 3002	  0.2172	 25.0925	  25.092	 150.145
 3003	  0.2168	 25.1012	  25.101	 150.195
 3004	  0.2176	 25.1100	  25.110	 150.245
 3005	  0.2176	 25.1187	  25.119	 150.295
 3006	  0.2176	 25.1262	  25.126	 150.345
 3007	  0.2176	 25.1350	  25.135	 150.395
 3008	  0.2180	 25.1437	  25.144	 150.445
 3009	  0.2176	 25.1512	  25.151	 150.495
 3010	  0.2176	 25.1575	  25.157	 150.545
 3011	  0.2180	 25.1663	  25.166	 150.595
 3012	  0.2176	 25.1737	  25.174	 150.645
 3013	  0.2180	 25.1825	  25.182	 150.695
 3014	  0.2176	 25.1912	  25.191	 150.745
 3015	  0.2176	 25.1987	  25.199	 150.795
 3016	  0.2176	 25.2075	  25.207	 150.845
 3017	  0.2172	 25.2162	  25.216	 150.895
 3018	  0.2172	 25.2237	  25.224	 150.945
 3019	  0.2180	 25.2325	  25.233	 150.995
 3020	  0.2180	 25.2412	  25.241	 151.045
 3021	  0.2176	 25.2487	  25.249	 151.095
 3022	  0.2172	 25.2575	  25.257	 151.145
 3023	  0.2176	 25.2662	  25.266	 151.195
 3024	  0.2176	 25.2738	  25.274	 151.245
 3025	  0.2180	 25.2825	  25.282	 151.295
 3026	  0.2176	 25.2913	  25.291	 151.345
 3027	  0.2176	 25.2987	  25.299	 151.395
 3028	  0.2176	 25.3075	  25.307	 151.445
 3029	  0.2176	 25.3162	  25.316	 151.495
 3030	  0.2176	 25.3237	  25.324	 151.545
 3031	  0.2180	 25.3325	  25.332	 151.595
 3032	  0.2184	 25.3412	  25.341	 151.645
 3033	  0.2180	 25.3500	  25.350	 151.695
 3034	  0.2176	 25.3575	  25.358	 151.745
 3035	  0.2180	 25.3662	  25.366	 151.795
 3036	  0.2180	 25.3737	  25.374	 151.845
 3037	  0.2180	 25.3825	  25.382	 151.895
 3038	  0.2172	 25.3912	  25.391	 151.945
 3039	  0.2172	 25.3988	  25.399	 151.995
 3040	  0.2176	 25.4075	  25.407	 152.045
 3041	  0.2176	 25.4163	  25.416	 152.095
 3042	  0.2172	 25.4237	  25.424	 152.145
 3043	  0.2168	 25.4325	  25.432	 152.195
 3044	  0.2164	 25.4412	  25.441	 152.245
 3045	  0.2168	 25.4487	  25.449	 152.295
 3046	  0.2172	 25.4575	  25.457	 152.345
 3047	  0.2172	 25.4662	  25.466	 152.395
 3048	  0.2172	 25.4750	  25.475	 152.445
 3049	  0.2168	 25.4825	  25.483	 152.495
 3050	  0.2168	 25.4912	  25.491	 152.545
 3051	  0.2164	 25.5000	  25.500	 152.595
 3052	  0.2172	 25.5075	  25.507	 152.645
 3053	  0.2176	 25.5162	  25.516	 152.695
 3054	  0.2180	 25.5250	  25.525	 152.745
 3055	  0.2180	 25.5325	  25.532	 152.795
 3056	  0.2176	 25.5413	  25.541	 152.845
 3057	  0.2180	 25.5487	  25.549	 152.895
 3058	  0.2176	 25.5575	  25.557	 152.945
 3059	  0.2168	 25.5662	  25.566	 152.995
 3060	  0.2172	 25.5750	  25.575	 153.045
 3061	  0.2168	 25.5825	  25.582	 153.095
 3062	  0.2168	 25.5912	  25.591	 153.145
 3063	  0.2168	 25.6000	  25.600	 153.195
 3064	  0.2164	 25.6075	  25.608	 153.245
 3065	  0.2156	 25.6162	  25.616	 153.295
 3066	  0.2152	 25.6250	  25.625	 153.345
 3067	  0.2152	 25.6325	  25.632	 153.395
 3068	  0.1196	 25.6412	  25.641	 153.445
 3069	  0.0000	 25.6500	  25.650	 153.495
 3070	  0.0004	 25.6575	  25.657	 153.545
 3071	  0.0000	 25.6663	  25.666	 153.595
 3072	  0.0008	 25.6750	  25.675	 153.645
 3073	  0.0000	 25.6825	  25.682	 153.695
 3074	  0.0000	 25.6912	  25.691	 153.745
 3075	  0.0004	 25.7000	  25.700	 153.795
 3076	  0.0004	 25.7075	  25.707	 153.845
 3077	  0.0008	 25.7162	  25.716	 153.895
 3078	  0.0004	 25.7250	  25.725	 153.945
 3079	  0.0004	 25.7337	  25.734	 153.995
 3080	  0.0008	 25.7412	  25.741	 154.045
 3081	  0.0008	 25.7500	  25.750	 154.095
 3082	  0.0004	 25.7575	  25.757	 154.145
 3083	  0.0004	 25.7662	  25.766	 154.195
 3084	  0.0004	 25.7750	  25.775	 154.245
 3085	  0.0000	 25.7825	  25.782	 154.295
 3086	  0.0004	 25.7913	  25.791	 154.345
 3087	  0.0000	 25.7987	  25.799	 154.395
 3088	  0.0004	 25.8075	  25.807	 154.445
 3089	  0.0004	 25.8162	  25.816	 154.495
 3090	  0.0004	 25.8237	  25.824	 154.545
 3091	  0.0008	 25.8325	  25.832	 154.595
 3092	  0.0008	 25.8400	  25.840	 154.645
 3093	  0.0008	 25.8487	  25.849	 154.695
 3094	  0.0004	 25.8575	  25.858	 154.745
 3095	  0.0008	 25.8662	  25.866	 154.795
 3096	  0.0008	 25.8737	  25.874	 154.845
 3097	  0.0004	 25.8825	  25.882	 154.895
 3098	  0.0008	 25.8912	  25.891	 154.945
 3099	  0.0008	 25.8988	  25.899	 154.995
 3100	  0.0008	 25.9075	  25.907	 155.045
 3101	  0.0008	 25.9163	  25.916	 155.095
 3102	  0.0008	 25.9237	  25.924	 155.145
 3103	  0.0008	 25.9325	  25.932	 155.195
 3104	  0.0008	 25.9400	  25.940	 155.245
 3105	  0.0004	 25.9487	  25.949	 155.295
 3106	  0.0004	 25.9575	  25.957	 155.345
 3107	  0.0000	 25.9650	  25.965	 155.395
 3108	  0.0000	 25.9737	  25.974	 155.445
 3109	  0.0008	 25.9825	  25.983	 155.495
 3110	  0.0008	 25.9912	  25.991	 155.545
 3111	  0.0004	 25.9987	  25.999	 155.595
 3112	  0.0004	 26.0075	  26.007	 155.645
 3113	  0.0008	 26.0162	  26.016	 155.695
 3114	  0.0008	 26.0238	  26.024	 155.745
 3115	  0.0004	 26.0325	  26.032	 155.795
 3116	  0.0004	 26.0413	  26.041	 155.845
ControlMode:	0
Rate:	 10.0000
(null)
4
step	1
0
5.000000
0.000000
1
1
0.500000
2
step	2
1
5.000000
0.000000
1
1
2.000000
3
step	3
5
2.000000
0.000000
1
0
30.000000
4
step	4
8
0.000000
0.000000
0
0
0.000000
0
2
